Data from 20250704_urea_1.5M_MAYP1162681_11-45-33-595.txt Node
Date: Fri Jul 04 11:45:33 BST 2025
User: adleo
Spectrometer: MAYP116268
Trigger mode: 0
Integration Time (sec): 1.000000E0
Scans to average: 1
Electric dark correction enabled: true
Nonlinearity correction enabled: true
Boxcar width: 10
XAxis mode: Wavelengths
Number of Pixels in Spectrum: 2068
>>>>>Begin Spectral Data<<<<<
179.565	1259.37
179.642	1319.84
179.718	1366.24
179.795	1407.45
179.871	1442.89
179.948	1460.37
180.024	1482.6
180.101	1505.79
180.177	1522.03
180.254	1543.08
180.33	1566.22
180.407	1622.77
180.483	1721.93
180.56	1818.9
180.636	1909.83
180.712	1897.32
180.789	1909.73
180.865	1918.47
180.942	1929.41
181.018	1939.34
181.095	1954.28
181.171	1958.08
181.248	1958.99
181.324	1974.73
181.4	1983.53
181.477	1994.66
181.553	2010.82
181.63	2031.65
181.706	2047.01
181.782	2056.52
181.859	2056.71
181.935	2060.04
182.011	2055.19
182.088	2072.07
182.164	2089.63
182.24	2102.24
182.317	2114.32
182.393	2112.13
182.469	2130.25
182.546	2144.28
182.622	2150.89
182.698	2147.09
182.775	2158.6
182.851	2173.82
182.927	2167.73
183.003	2160.74
183.08	2152.89
183.156	2161.31
183.232	2156.32
183.308	2144.71
183.385	2151.75
183.461	2173.64
183.537	2177.16
183.613	2193.81
183.69	2185.96
183.766	2174.34
183.842	2179.39
183.918	2183.57
183.995	2195.32
184.071	2201.13
184.147	2193.52
184.223	2180.77
184.299	2195.29
184.375	2183.11
184.452	2192.06
184.528	2241.93
184.604	2250.54
184.68	2265.24
184.756	2272.05
184.832	2279.47
184.908	2284.61
184.985	2282.85
185.061	2263.06
185.137	2272.53
185.213	2257.11
185.289	2257.59
185.365	2250.74
185.441	2248.26
185.517	2260.54
185.593	2254.79
185.669	2247.46
185.745	2260.16
185.822	2276.81
185.898	2267.29
185.974	2278.66
186.05	2265.43
186.126	2228.83
186.202	2225.31
186.278	2220.88
186.354	2214.17
186.43	2220.74
186.506	2219.08
186.582	2217.17
186.658	2226.97
186.734	2208.42
186.81	2214.12
186.886	2217.26
186.962	2229.25
187.038	2231.59
187.114	2227.3
187.19	2238.67
187.266	2231.44
187.341	2233.44
187.417	2224.45
187.493	2222.12
187.569	2223.64
187.645	2219.84
187.721	2209.84
187.797	2216.45
187.873	2218.93
187.949	2208.08
188.025	2200.42
188.101	2207.65
188.176	2216.5
188.252	2211.84
188.328	2218.4
188.404	2218.02
188.48	2212.88
188.556	2208.88
188.632	2204.17
188.707	2201.75
188.783	2197.99
188.859	2192.71
188.935	2179.91
189.011	2189.37
189.086	2184.66
189.162	2178.1
189.238	2175.72
189.314	2172.87
189.39	2168.54
189.465	2163.63
189.541	2185.71
189.617	2170.06
189.693	2163.21
189.768	2164.97
189.844	2190.87
189.92	2182.45
189.996	2193.87
190.071	2204.72
190.147	2200.06
190.223	2210
190.298	2202.96
190.374	2189.64
190.45	2204.72
190.526	2214.14
190.601	2209.14
190.677	2208.71
190.753	2236.28
190.828	2237.23
190.904	2252.32
190.98	2265.93
191.055	2275.06
191.131	2263.16
191.207	2284.05
191.282	2293.33
191.358	2284.62
191.433	2267.1
191.509	2279.7
191.585	2274.56
191.66	2275.42
191.736	2283.89
191.811	2273.89
191.887	2290.75
191.963	2314.35
192.038	2314.4
192.114	2311.21
192.189	2315.97
192.265	2315.4
192.34	2293.97
192.416	2294.21
192.491	2290.07
192.567	2294.26
192.642	2294.97
192.718	2294.54
192.793	2282.69
192.869	2278.74
192.944	2281.36
193.02	2290.55
193.095	2293.31
193.171	2298.35
193.246	2297.88
193.322	2295.21
193.397	2297.07
193.473	2281.26
193.548	2261.94
193.624	2269.55
193.699	2271.74
193.775	2287.07
193.85	2288.6
193.925	2298.5
194.001	2296.4
194.076	2289.12
194.152	2276.79
194.227	2272.84
194.302	2263.14
194.378	2268.37
194.453	2266.42
194.529	2278.13
194.604	2261.71
194.679	2261.09
194.755	2243.77
194.83	2258.44
194.905	2257.82
194.981	2268.62
195.056	2261.87
195.131	2270.24
195.207	2266.96
195.282	2254.59
195.357	2235.07
195.433	2250.3
195.508	2235.07
195.583	2242.82
195.659	2257.44
195.734	2265.77
195.809	2262.15
195.884	2268.57
195.96	2268.86
196.035	2282.8
196.11	2280.75
196.185	2293.13
196.261	2293.17
196.336	2323.06
196.411	2307.92
196.486	2311.3
196.561	2304.35
196.637	2314.2
196.712	2329.77
196.787	2332.91
196.862	2352.23
196.937	2365.7
197.013	2370.75
197.088	2381.83
197.163	2406.17
197.238	2423.22
197.313	2424.27
197.388	2441.03
197.464	2477.98
197.539	2489.22
197.614	2486.03
197.689	2498.93
197.764	2517.36
197.839	2538.88
197.914	2532.88
197.989	2556.27
198.065	2573.03
198.14	2623.21
198.215	2650.12
198.29	2662.22
198.365	2676.65
198.44	2688.66
198.515	2713.62
198.59	2728.77
198.665	2756.07
198.74	2763.98
198.815	2764.74
198.89	2785.51
198.965	2818.74
199.04	2814.35
199.115	2831.12
199.19	2870.72
199.265	2872.53
199.34	2881.16
199.415	2915.4
199.49	2939.36
199.565	2950.09
199.64	2973.16
199.715	2969.01
199.79	2977.73
199.865	2986.7
199.94	2986.93
200.015	3017.4
200.09	3024.75
200.165	3030.47
200.24	3039.96
200.315	3080.66
200.39	3093.25
200.464	3099.35
200.539	3098.97
200.614	3115.42
200.689	3139.17
200.764	3147.76
200.839	3168.31
200.914	3173.22
200.989	3164.96
201.063	3180.42
201.138	3161.69
201.213	3163.45
201.288	3146.95
201.363	3152.58
201.438	3149.57
201.512	3166.12
201.587	3149.32
201.662	3152.43
201.737	3168.02
201.812	3174.46
201.886	3143.25
201.961	3158.37
202.036	3149.65
202.111	3147.07
202.186	3114.43
202.26	3094.11
202.335	3068.97
202.41	3060.29
202.485	3044.76
202.559	3021.58
202.634	2994.4
202.709	3004.65
202.784	2983.67
202.858	2982.38
202.933	2959.88
203.008	2955.45
203.082	2934
203.157	2934.86
203.232	2890.31
203.306	2865.89
203.381	2832.76
203.456	2809.12
203.53	2780.93
203.605	2760.69
203.68	2735.33
203.754	2729.95
203.829	2716.75
203.904	2699.07
203.978	2685.21
204.053	2686.68
204.127	2674.3
204.202	2669.82
204.277	2653.1
204.351	2645.71
204.426	2635.04
204.5	2627.13
204.575	2590.13
204.65	2602.9
204.724	2592.22
204.799	2600.17
204.873	2599.13
204.948	2598.46
205.022	2584.27
205.097	2578.46
205.171	2592.36
205.246	2601.61
205.32	2599.23
205.395	2602.32
205.469	2590.61
205.544	2596.62
205.618	2581.37
205.693	2592.71
205.767	2579.57
205.842	2600.15
205.916	2595.96
205.991	2591.48
206.065	2598.67
206.14	2613.71
206.214	2606.37
206.289	2596.27
206.363	2608.85
206.438	2611.95
206.512	2620.19
206.586	2640.81
206.661	2648.81
206.735	2626.48
206.81	2624.01
206.884	2640.72
206.958	2628.19
207.033	2649.47
207.107	2656.67
207.181	2685.31
207.256	2681.16
207.33	2703.98
207.405	2716.04
207.479	2735.39
207.553	2744.87
207.628	2726.39
207.702	2741.73
207.776	2737.06
207.851	2744.21
207.925	2762.22
207.999	2759.13
208.073	2757.79
208.148	2759.32
208.222	2746.45
208.296	2780.55
208.371	2798.91
208.445	2810.35
208.519	2833.6
208.593	2845.46
208.668	2846.46
208.742	2852.71
208.816	2854.81
208.89	2868.01
208.965	2864.91
209.039	2872.68
209.113	2885.22
209.187	2907.94
209.261	2902.36
209.336	2922.48
209.41	2939.35
209.484	2938.06
209.558	2961.9
209.632	2977.87
209.707	2991.79
209.781	3017.48
209.855	3035.47
209.929	3056.99
210.003	3065.57
210.077	3068.44
210.151	3118.07
210.226	3151.95
210.3	3182.98
210.374	3208.87
210.448	3216.22
210.522	3231.34
210.596	3247.04
210.67	3260.82
210.744	3314.84
210.818	3353.13
210.892	3381.19
210.966	3384.87
211.041	3409.25
211.115	3410.58
211.189	3442.32
211.263	3469
211.337	3483.31
211.411	3506.37
211.485	3506.9
211.559	3529.61
211.633	3546.93
211.707	3530.16
211.781	3552.38
211.855	3537.48
211.929	3545.64
212.003	3542.68
212.077	3574.83
212.151	3608.79
212.225	3644.37
212.299	3656.94
212.373	3672.7
212.447	3697.12
212.52	3760.47
212.594	3793.92
212.668	3840.64
212.742	3859.84
212.816	3891.72
212.89	3927.36
212.964	3971.41
213.038	4024.53
213.112	4090.86
213.186	4156.63
213.26	4189.27
213.333	4200.89
213.407	4262.7
213.481	4325.08
213.555	4404.48
213.629	4448.64
213.703	4500.18
213.777	4568.83
213.85	4615.83
213.924	4725.77
213.998	4800.96
214.072	4875.08
214.146	4946.2
214.219	5027.54
214.293	5115.09
214.367	5207.52
214.441	5312.99
214.515	5398.67
214.588	5475.67
214.662	5535.69
214.736	5612.83
214.81	5722.58
214.883	5832.98
214.957	5922.17
215.031	6028.31
215.105	6114.01
215.178	6218.37
215.252	6326.61
215.326	6418.35
215.4	6520.95
215.473	6587.81
215.547	6690.51
215.621	6793.58
215.694	6917.68
215.768	7012.37
215.842	7120.33
215.915	7228.24
215.989	7321.39
216.063	7430.01
216.136	7547.65
216.21	7671.92
216.284	7812.82
216.357	7946.33
216.431	8076.63
216.504	8218.19
216.578	8361.68
216.652	8505.36
216.725	8632.06
216.799	8765
216.873	8895
216.946	9037.95
217.02	9159.48
217.093	9288.13
217.167	9398.97
217.24	9513.73
217.314	9644.5
217.387	9764.11
217.461	9893.1
217.535	10039.62
217.608	10158.16
217.682	10291.32
217.755	10426.49
217.829	10542.99
217.902	10660.22
217.976	10779.61
218.049	10891.79
218.123	10999.98
218.196	11133.89
218.27	11259.14
218.343	11369.26
218.417	11499
218.49	11621.81
218.563	11769.24
218.637	11888.77
218.71	12024.55
218.784	12157.15
218.857	12288.83
218.931	12420.61
219.004	12537.12
219.077	12662.3
219.151	12787.58
219.224	12897.3
219.298	13013.33
219.371	13145.55
219.444	13251.41
219.518	13366.04
219.591	13476.92
219.665	13622.35
219.738	13732.84
219.811	13833.35
219.885	13959.12
219.958	14072.4
220.031	14172.81
220.105	14283.73
220.178	14393.3
220.251	14484.46
220.325	14584.43
220.398	14684.99
220.471	14790.36
220.544	14897.13
220.618	14976.67
220.691	15076.64
220.764	15175.84
220.838	15281.7
220.911	15364.41
220.984	15475.76
221.057	15573.61
221.131	15668.56
221.204	15721.82
221.277	15820.87
221.35	15937.52
221.424	16010.59
221.497	16087.08
221.57	16178.85
221.643	16258.37
221.716	16346.67
221.79	16420.9
221.863	16494.01
221.936	16572.81
222.009	16643.28
222.082	16718.51
222.155	16789.17
222.229	16869.46
222.302	16939.2
222.375	16998.43
222.448	17069.8
222.521	17133.13
222.594	17189.37
222.667	17243.74
222.74	17322.73
222.814	17371.98
222.887	17433.04
222.96	17498.82
223.033	17564.32
223.106	17611.02
223.179	17671.3
223.252	17717.47
223.325	17781.81
223.398	17832.99
223.471	17884.7
223.544	17932.84
223.617	17977.9
223.69	18036.98
223.763	18072.4
223.837	18118.96
223.91	18172.4
223.983	18193.27
224.056	18225.89
224.129	18274.9
224.202	18328.39
224.275	18348.44
224.348	18374.37
224.42	18384.39
224.493	18398.75
224.566	18419.67
224.639	18461.98
224.712	18482.51
224.785	18507.18
224.858	18530.5
224.931	18558.31
225.004	18573.25
225.077	18604.38
225.15	18608.47
225.223	18626.64
225.296	18670.54
225.369	18672.13
225.442	18679.41
225.514	18707.02
225.587	18725.24
225.66	18744.85
225.733	18768.42
225.806	18795.98
225.879	18819.64
225.952	18824.75
226.025	18859.74
226.097	18893.23
226.17	18909.27
226.243	18904.46
226.316	18927.97
226.389	18946.81
226.461	18959.49
226.534	18976.31
226.607	18990.14
226.68	19028.35
226.753	19033.6
226.825	19014.18
226.898	19043.63
226.971	19051.68
227.044	19066.18
227.117	19079.77
227.189	19100.64
227.262	19118.18
227.335	19127.96
227.407	19133.84
227.48	19149.64
227.553	19158.9
227.626	19161.69
227.698	19163.38
227.771	19177.98
227.844	19172
227.916	19177.79
227.989	19171.04
228.062	19171.96
228.134	19199.09
228.207	19193.45
228.28	19196.39
228.352	19209.98
228.425	19218.03
228.498	19232.05
228.57	19224.92
228.643	19239.62
228.716	19232.15
228.788	19220.34
228.861	19209.69
228.934	19222.56
229.006	19235.33
229.079	19228.97
229.151	19214.94
229.224	19201.93
229.296	19199.47
229.369	19220.05
229.442	19225.06
229.514	19221.54
229.587	19226.75
229.659	19185.69
229.732	19182.17
229.804	19182.32
229.877	19197.5
229.949	19205.35
230.022	19214.75
230.094	19210.07
230.167	19206.75
230.239	19183.33
230.312	19176.39
230.384	19201.93
230.457	19194.85
230.529	19185.74
230.602	19183.18
230.674	19186.32
230.747	19192.87
230.819	19204.29
230.892	19173.21
230.964	19168.25
231.037	19172.44
231.109	19164.87
231.181	19170.94
231.254	19153.93
231.326	19146.71
231.399	19126.37
231.471	19107.38
231.544	19075.91
231.616	19086.52
231.688	19068.49
231.761	19066.18
231.833	19062.18
231.905	19016.16
231.978	19002.62
232.05	18983.73
232.122	18971.87
232.195	18953.46
232.267	18957.13
232.339	18930.48
232.412	18933.47
232.484	18918.09
232.556	18886.77
232.629	18905.42
232.701	18904.17
232.773	18899.01
232.846	18882.58
232.918	18876.94
232.99	18868.89
233.062	18872.46
233.135	18855.49
233.207	18837.23
233.279	18834.05
233.351	18817.71
233.424	18808.94
233.496	18786.2
233.568	18802.29
233.64	18780.56
233.713	18761.09
233.785	18728.56
233.857	18729.09
233.929	18691.65
234.001	18687.6
234.074	18696.18
234.146	18649.39
234.218	18624.71
234.29	18601.63
234.362	18581.05
234.434	18548.19
234.507	18518.02
234.579	18480.05
234.651	18452.87
234.723	18448
234.795	18429.74
234.867	18416.15
234.939	18412.87
235.012	18398.12
235.084	18376.53
235.156	18359.33
235.228	18345.02
235.3	18326.56
235.372	18303.57
235.444	18301.84
235.516	18266.85
235.588	18250.76
235.66	18232.3
235.732	18214.09
235.804	18255.91
235.876	18247.38
235.948	18242.47
236.02	18215.67
236.092	18200.54
236.164	18194.86
236.236	18165.32
236.308	18137.27
236.38	18114.28
236.452	18082.62
236.524	18062.77
236.596	18048.79
236.668	18039.1
236.74	18024.79
236.812	18016.5
236.884	18001.27
236.956	17981.95
237.028	17950.38
237.1	17910.34
237.172	17909.71
237.244	17899.06
237.316	17838.97
237.388	17810.97
237.46	17779.79
237.532	17773.23
237.604	17744.32
237.675	17729.19
237.747	17710
237.819	17686.54
237.891	17663.4
237.963	17631.88
238.035	17598.05
238.107	17539.74
238.178	17524.27
238.25	17489.43
238.322	17487.21
238.394	17443.74
238.466	17413.19
238.538	17394.44
238.609	17382.39
238.681	17336.08
238.753	17296.85
238.825	17271.79
238.897	17243.93
238.968	17228.99
239.04	17193.57
239.112	17198.29
239.184	17155.21
239.255	17138.78
239.327	17116.22
239.399	17095.3
239.471	17087.4
239.542	17073.23
239.614	17064.36
239.686	17016.65
239.758	17006.05
239.829	16960.75
239.901	16957.37
239.973	16936.36
240.044	16916.6
240.116	16894.82
240.188	16864.94
240.259	16840.31
240.331	16807.15
240.403	16793.9
240.474	16762.91
240.546	16733.07
240.618	16682.42
240.689	16658.08
240.761	16629.64
240.833	16627.62
240.904	16590.75
240.976	16556.58
241.048	16532.38
241.119	16522.65
241.191	16509.44
241.262	16501.64
241.334	16474.07
241.405	16441.78
241.477	16403.27
241.549	16379.02
241.62	16353.57
241.692	16337.28
241.763	16331.16
241.835	16310.34
241.906	16285.81
241.978	16243.73
242.049	16237.56
242.121	16226.91
242.192	16213.85
242.264	16165.94
242.335	16113.36
242.407	16100.34
242.478	16075.52
242.55	16052.24
242.621	16007.08
242.693	15969.58
242.764	15930.15
242.836	15895.45
242.907	15870.58
242.979	15855.01
243.05	15832.55
243.122	15811.29
243.193	15784.73
243.264	15732.58
243.336	15698.65
243.407	15680.09
243.479	15668.28
243.55	15644.04
243.622	15616.18
243.693	15588.32
243.764	15583.55
243.836	15551.83
243.907	15516.11
243.978	15488.06
244.05	15470.23
244.121	15429.83
244.192	15414.99
244.264	15371.41
244.335	15355.22
244.407	15312.32
244.478	15289.18
244.549	15259.92
244.62	15215.43
244.692	15187.81
244.763	15170.07
244.834	15137.15
244.906	15096.08
244.977	15078.29
245.048	15065.04
245.119	15029.22
245.191	14989.6
245.262	14932.14
245.333	14924.86
245.405	14902.11
245.476	14876.03
245.547	14845.04
245.618	14823.78
245.689	14803.29
245.761	14788.11
245.832	14757.31
245.903	14742.7
245.974	14721.83
246.045	14699.17
246.117	14688.33
246.188	14648.56
246.259	14608.6
246.33	14577.21
246.401	14549.06
246.473	14501.68
246.544	14456.22
246.615	14439.35
246.686	14404.26
246.757	14405.99
246.828	14356.87
246.899	14348.82
246.97	14312.23
247.042	14280.08
247.113	14272.12
247.184	14264.36
247.255	14222.91
247.326	14198.37
247.397	14169.16
247.468	14139.94
247.539	14113.82
247.61	14069.32
247.681	14050.52
247.752	14035.82
247.823	14007.67
247.894	13990.99
247.965	13966.64
248.037	13935.6
248.108	13896.98
248.179	13881.99
248.25	13846.56
248.321	13835.62
248.392	13790.59
248.463	13789.1
248.534	13760.17
248.605	13739.78
248.675	13704.69
248.746	13692.59
248.817	13671.67
248.888	13649.45
248.959	13613.19
249.03	13591.55
249.101	13574.53
249.172	13549.95
249.243	13509.26
249.314	13508.25
249.385	13476.77
249.456	13457.87
249.527	13433.77
249.598	13419.93
249.669	13395.49
249.739	13384.26
249.81	13364.16
249.881	13330.61
249.952	13302.7
250.023	13281.24
250.094	13235.93
250.165	13202.91
250.235	13175.24
250.306	13154.22
250.377	13117.87
250.448	13095.5
250.519	13051.54
250.59	13046.62
250.66	13023.44
250.731	13021.65
250.802	12994.61
250.873	12977.74
250.944	12953.83
251.014	12933.72
251.085	12933.15
251.156	12919.36
251.227	12906.73
251.297	12901.28
251.368	12894.15
251.439	12885.08
251.51	12880.17
251.58	12848.45
251.651	12815.86
251.722	12809.59
251.792	12768.23
251.863	12746.93
251.934	12736.61
252.005	12742.93
252.075	12719.69
252.146	12710.05
252.217	12696.94
252.287	12682.14
252.358	12658.28
252.429	12652.06
252.499	12620
252.57	12601.06
252.641	12587.75
252.711	12565.34
252.782	12528.03
252.852	12525.76
252.923	12504.6
252.994	12482.33
253.064	12487.68
253.135	12462.18
253.205	12431.19
253.276	12428.53
253.347	12430.56
253.417	12402.31
253.488	12377.05
253.558	12350.16
253.629	12326.01
253.699	12314.2
253.77	12304.31
253.841	12291.83
253.911	12284.26
253.982	12273.37
254.052	12260.88
254.123	12244.73
254.193	12217.98
254.264	12236.3
254.334	12205.59
254.405	12168.04
254.475	12133.82
254.546	12106.2
254.616	12106.2
254.687	12092.18
254.757	12084.32
254.827	12061.62
254.898	12047.01
254.968	12033.51
255.039	12008.74
255.109	12002.76
255.18	11972.01
255.25	11931.18
255.321	11918.75
255.391	11890.74
255.461	11897.97
255.532	11852.04
255.602	11823.74
255.673	11794.68
255.743	11764.36
255.813	11720.26
255.884	11721.66
255.954	11716.74
256.024	11721.18
256.095	11704.16
256.165	11676.83
256.235	11658.56
256.306	11634.66
256.376	11631.19
256.446	11611.96
256.517	11614.51
256.587	11603.19
256.657	11584.44
256.728	11565.11
256.798	11544.53
256.868	11515.18
256.938	11485.25
257.009	11481.68
257.079	11470.02
257.149	11481.87
257.219	11444.71
257.29	11438.16
257.36	11399.22
257.43	11396.04
257.5	11352.08
257.571	11338.97
257.641	11330.78
257.711	11302.39
257.781	11290.68
257.852	11277.48
257.922	11243.41
257.992	11210.97
258.062	11188.56
258.132	11183.65
258.202	11168.51
258.273	11151.41
258.343	11152.37
258.413	11129.62
258.483	11105.09
258.553	11081.48
258.623	11053.62
258.693	11038.06
258.764	11040.22
258.834	11037.82
258.904	11019.02
258.974	10998.11
259.044	10969.92
259.114	10961.24
259.184	10946.3
259.254	10932.23
259.324	10894.07
259.394	10887.03
259.464	10894.74
259.535	10875.8
259.605	10851.71
259.675	10831.81
259.745	10826.12
259.815	10795.67
259.885	10770.37
259.955	10788.35
260.025	10758.43
260.095	10733.56
260.165	10731.15
260.235	10728.94
260.305	10705.9
260.375	10671.64
260.445	10675.55
260.515	10682.53
260.585	10677.67
260.655	10663.74
260.725	10657.43
260.795	10657
260.865	10665.43
260.934	10634.4
261.004	10625.92
261.074	10611.17
261.144	10611.56
261.214	10602.26
261.284	10586.31
261.354	10587.08
261.424	10557.73
261.494	10568.04
261.564	10559.37
261.634	10544.87
261.703	10505.02
261.773	10501.65
261.843	10497.22
261.913	10478.52
261.983	10439.59
262.053	10422.34
262.123	10402.64
262.192	10372.82
