Data from 20250704_urea_1.5M_MAYP1162681_11-45-39-595.txt Node
Date: Fri Jul 04 11:45:39 BST 2025
User: adleo
Spectrometer: MAYP116268
Trigger mode: 0
Integration Time (sec): 1.000000E0
Scans to average: 1
Electric dark correction enabled: true
Nonlinearity correction enabled: true
Boxcar width: 10
XAxis mode: Wavelengths
Number of Pixels in Spectrum: 2068
>>>>>Begin Spectral Data<<<<<
179.565	1261.28
179.642	1320.93
179.718	1365.41
179.795	1407.31
179.871	1441.7
179.948	1460.62
180.024	1483.66
180.101	1507.74
180.177	1522.4
180.254	1547.58
180.33	1569.6
180.407	1627.25
180.483	1727.4
180.56	1821.52
180.636	1907.36
180.712	1895.13
180.789	1906.5
180.865	1917.81
180.942	1923.7
181.018	1935.59
181.095	1948.38
181.171	1955.61
181.248	1957.08
181.324	1974.4
181.4	1981.82
181.477	1992.99
181.553	2006.92
181.63	2026.47
181.706	2042.5
181.782	2051.24
181.859	2049.67
181.935	2057.19
182.011	2053.62
182.088	2070.13
182.164	2089.64
182.24	2105.75
182.317	2111.7
182.393	2109.18
182.469	2123.3
182.546	2140.47
182.622	2145.61
182.698	2139.66
182.775	2149.04
182.851	2162.64
182.927	2153.94
183.003	2149.99
183.08	2145.33
183.156	2153.46
183.232	2148.61
183.308	2136.19
183.385	2146.94
183.461	2164.35
183.537	2165.4
183.613	2178.25
183.69	2168.59
183.766	2157.21
183.842	2166.21
183.918	2175.48
183.995	2186.9
184.071	2192.51
184.147	2186.61
184.223	2175.68
184.299	2189.86
184.375	2179.63
184.452	2189.15
184.528	2240.73
184.604	2250.53
184.68	2261.05
184.756	2270.18
184.832	2277.99
184.908	2284.98
184.985	2282.46
185.061	2265.81
185.137	2275.52
185.213	2261.67
185.289	2263.53
185.365	2257.63
185.441	2255.73
185.517	2267.2
185.593	2265.63
185.669	2262.39
185.745	2272.76
185.822	2286.7
185.898	2279.18
185.974	2287.12
186.05	2275.89
186.126	2243.1
186.202	2238.77
186.278	2235.3
186.354	2224.35
186.43	2232.35
186.506	2231.69
186.582	2229.31
186.658	2236.68
186.734	2214.37
186.81	2221.31
186.886	2223.69
186.962	2238.49
187.038	2234.3
187.114	2229.73
187.19	2236.2
187.266	2227.26
187.341	2224.21
187.417	2218.08
187.493	2216.22
187.569	2221.6
187.645	2214.65
187.721	2200.85
187.797	2205.61
187.873	2211.41
187.949	2204.47
188.025	2195.47
188.101	2198.37
188.176	2203.99
188.252	2200.13
188.328	2209.17
188.404	2207.22
188.48	2205.31
188.556	2195.08
188.632	2193.75
188.707	2193.32
188.783	2190.94
188.859	2186.33
188.935	2178.43
189.011	2186.9
189.086	2183.09
189.162	2174.72
189.238	2172.48
189.314	2170.3
189.39	2163.07
189.465	2152.45
189.541	2169.58
189.617	2154.46
189.693	2146.04
189.768	2150.75
189.844	2174.93
189.92	2164.94
189.996	2174.74
190.071	2184.78
190.147	2185.3
190.223	2196.25
190.298	2187.73
190.374	2173.89
190.45	2184.59
190.526	2191.49
190.601	2187.49
190.677	2187.73
190.753	2214.34
190.828	2219.43
190.904	2235.14
190.98	2253.22
191.055	2264.83
191.131	2256.98
191.207	2277.63
191.282	2289.47
191.358	2280.48
191.433	2267.81
191.509	2281.84
191.585	2279.08
191.66	2279.85
191.736	2287.6
191.811	2277.04
191.887	2295.7
191.963	2319.54
192.038	2326.49
192.114	2327.39
192.189	2329.53
192.265	2328.63
192.34	2306.3
192.416	2305.87
192.491	2300.01
192.567	2302.68
192.642	2305.87
192.718	2305.59
192.793	2292.69
192.869	2286.74
192.944	2290.88
193.02	2296.74
193.095	2305.11
193.171	2307.68
193.246	2307.25
193.322	2303.78
193.397	2305.78
193.473	2289.35
193.548	2271.36
193.624	2275.64
193.699	2278.17
193.775	2291.97
193.85	2289.93
193.925	2300.64
194.001	2299.49
194.076	2292.21
194.152	2280.55
194.227	2272.41
194.302	2261.23
194.378	2265.61
194.453	2262.33
194.529	2275.04
194.604	2259.1
194.679	2247.29
194.755	2230.07
194.83	2241.83
194.905	2242.17
194.981	2249.73
195.056	2241.84
195.131	2248.36
195.207	2247.31
195.282	2234.37
195.357	2218.18
195.433	2232.55
195.508	2220.41
195.583	2226.65
195.659	2239.78
195.734	2247.69
195.809	2247.78
195.884	2258.58
195.96	2259.62
196.035	2276.61
196.11	2271.52
196.185	2283.99
196.261	2290.41
196.336	2323.91
196.411	2309.82
196.486	2313.67
196.561	2309.87
196.637	2320.29
196.712	2337.24
196.787	2341.43
196.862	2356.75
196.937	2369.36
197.013	2378.93
197.088	2389.97
197.163	2413.64
197.238	2435.46
197.313	2434.13
197.388	2450.31
197.464	2482.7
197.539	2493.98
197.614	2488.84
197.689	2501.03
197.764	2520.08
197.839	2541.08
197.914	2534.84
197.989	2556.46
198.065	2570.6
198.14	2617.68
198.215	2643.87
198.29	2654.4
198.365	2665.31
198.44	2679.17
198.515	2708.62
198.59	2723.86
198.665	2748.59
198.74	2757.93
198.815	2754.21
198.89	2782.13
198.965	2810.21
199.04	2806.58
199.115	2823.21
199.19	2866.67
199.265	2867.48
199.34	2876.87
199.415	2907.81
199.49	2927.92
199.565	2939.17
199.64	2964.86
199.715	2962.76
199.79	2974.2
199.865	2980.97
199.94	2981.02
200.015	3011.16
200.09	3012.83
200.165	3015.73
200.24	3025.6
200.315	3069.09
200.39	3085.63
200.464	3087.92
200.539	3090.11
200.614	3107.04
200.689	3128.93
200.764	3134.65
200.839	3156.67
200.914	3163.87
200.989	3156.24
201.063	3174.65
201.138	3157.5
201.213	3156.64
201.288	3135.37
201.363	3138.57
201.438	3139.66
201.512	3157.54
201.587	3140.7
201.662	3148.67
201.737	3164.55
201.812	3170.03
201.886	3132.66
201.961	3143.77
202.036	3133.05
202.111	3129.28
202.186	3099.3
202.26	3081.85
202.335	3059.72
202.41	3051.56
202.485	3032.83
202.559	3012.57
202.634	2985.24
202.709	2993.06
202.784	2974.56
202.858	2975.8
202.933	2954.16
203.008	2946.72
203.082	2925.79
203.157	2924.79
203.232	2880.24
203.306	2857.92
203.381	2825.93
203.456	2801.72
203.53	2778.83
203.605	2757.68
203.68	2734.46
203.754	2726.66
203.829	2713.07
203.904	2694.02
203.978	2682.82
204.053	2685.92
204.127	2674.48
204.202	2668.86
204.277	2651.57
204.351	2645
204.426	2642.09
204.5	2634.42
204.575	2600.23
204.65	2610.19
204.724	2602.99
204.799	2607.89
204.873	2605.27
204.948	2604.51
205.022	2592.32
205.097	2582.46
205.171	2596.27
205.246	2604.37
205.32	2603.23
205.395	2603.08
205.469	2590.9
205.544	2595.52
205.618	2576.66
205.693	2587.95
205.767	2580.71
205.842	2603.29
205.916	2596.48
205.991	2583.14
206.065	2588.24
206.14	2600.94
206.214	2598.13
206.289	2590.99
206.363	2604.94
206.438	2607.94
206.512	2613.94
206.586	2632.99
206.661	2641.05
206.735	2621.53
206.81	2623.15
206.884	2640.96
206.958	2628.58
207.033	2646.52
207.107	2655.87
207.181	2689.98
207.256	2683.22
207.33	2699.79
207.405	2713.67
207.479	2730.68
207.553	2744.78
207.628	2729.59
207.702	2744.73
207.776	2736.63
207.851	2738.4
207.925	2755.13
207.999	2750.27
208.073	2749.03
208.148	2752.75
208.222	2743.93
208.296	2775.89
208.371	2792.72
208.445	2801.82
208.519	2829.07
208.593	2845.27
208.668	2840.08
208.742	2841.18
208.816	2845.27
208.89	2855.33
208.965	2852.85
209.039	2863.15
209.113	2874.59
209.187	2897.31
209.261	2893.78
209.336	2914.23
209.41	2936.11
209.484	2934.87
209.558	2961.23
209.632	2973.62
209.707	2986.64
209.781	3010.38
209.855	3023.83
209.929	3043.45
210.003	3052.74
210.077	3055.03
210.151	3103.43
210.226	3141.74
210.3	3175.02
210.374	3201.43
210.448	3212.59
210.522	3226.48
210.596	3240.07
210.67	3256.62
210.744	3306.82
210.818	3341.54
210.892	3369.64
210.966	3372.27
211.041	3397.13
211.115	3398.8
211.189	3437.31
211.263	3463.12
211.337	3474.24
211.411	3497.39
211.485	3501.64
211.559	3524.45
211.633	3541.58
211.707	3524.76
211.781	3543.92
211.855	3523.92
211.929	3532.6
212.003	3530.03
212.077	3560.4
212.151	3597.95
212.225	3632.29
212.299	3647.49
212.373	3667.78
212.447	3691.48
212.52	3750.1
212.594	3785.61
212.668	3832.23
212.742	3849.43
212.816	3883.84
212.89	3923.69
212.964	3967.34
213.038	4019.22
213.112	4084.93
213.186	4154.2
213.26	4186.36
213.333	4196.92
213.407	4261.46
213.481	4322.55
213.555	4402.7
213.629	4455.39
213.703	4507.27
213.777	4577.46
213.85	4634.71
213.924	4748.5
213.998	4827.47
214.072	4899.91
214.146	4967.15
214.219	5052.42
214.293	5136.85
214.367	5227.17
214.441	5328.33
214.515	5416.01
214.588	5486.58
214.662	5547.7
214.736	5621.83
214.81	5729.61
214.883	5844.6
214.957	5938.26
215.031	6040.41
215.105	6124.81
215.178	6224.39
215.252	6328.93
215.326	6413.18
215.4	6506.98
215.473	6569.09
215.547	6668.37
215.621	6775.09
215.694	6902.36
215.768	6997.64
215.842	7106.84
215.915	7211.62
215.989	7302.03
216.063	7414.38
216.136	7532.02
216.21	7654.94
216.284	7795.31
216.357	7929.05
216.431	8059.5
216.504	8197.85
216.578	8345.46
216.652	8486.01
216.725	8612.29
216.799	8753.99
216.873	8888.22
216.946	9027.41
217.02	9156.12
217.093	9280.62
217.167	9394.74
217.24	9508.83
217.314	9637.39
217.387	9765.43
217.461	9891.09
217.535	10044.44
217.608	10157.06
217.682	10292.66
217.755	10435.65
217.829	10549.16
217.902	10674.48
217.976	10794.65
218.049	10909.52
218.123	11022.72
218.196	11152.4
218.27	11272.39
218.343	11373.6
218.417	11498.04
218.49	11621.37
218.563	11756.65
218.637	11880.72
218.71	12021.41
218.784	12148.66
218.857	12279.24
218.931	12403.16
219.004	12521.98
219.077	12648.23
219.151	12773.99
219.224	12890.45
219.298	12998.19
219.371	13127.91
219.444	13229.62
219.518	13346.52
219.591	13464.04
219.665	13599.94
219.738	13711.24
219.811	13819.56
219.885	13947.31
219.958	14066.57
220.031	14164.81
220.105	14284.45
220.178	14398.51
220.251	14490.1
220.325	14599.66
220.398	14698.82
220.471	14797.5
220.544	14906.58
220.618	14985.44
220.691	15089.08
220.764	15180.13
220.838	15278.56
220.911	15366.39
220.984	15475.52
221.057	15559.53
221.131	15650.05
221.204	15703.65
221.277	15813.55
221.35	15926.38
221.424	15994.54
221.497	16071.65
221.57	16154.89
221.643	16232.01
221.716	16311.2
221.79	16387.88
221.863	16456.08
221.936	16534.54
222.009	16609.06
222.082	16680.92
222.155	16748.87
222.229	16833.6
222.302	16907.82
222.375	16969.7
222.448	17039.92
222.521	17102.87
222.594	17169.71
222.667	17219.64
222.74	17284.85
222.814	17326.97
222.887	17372.99
222.96	17449.19
223.033	17512.99
223.106	17578.29
223.179	17634.77
223.252	17692.85
223.325	17747.4
223.398	17799.64
223.471	17852.94
223.544	17911.83
223.617	17974.04
223.69	18027.92
223.763	18046.04
223.837	18097.03
223.91	18155.44
223.983	18175.63
224.056	18209.07
224.129	18260.2
224.202	18320.92
224.275	18362.66
224.348	18396
224.42	18420.87
224.493	18433.83
224.566	18457.93
224.639	18495.23
224.712	18513.73
224.785	18538.41
224.858	18565.01
224.931	18587.13
225.004	18599.41
225.077	18624.86
225.15	18616.86
225.223	18644.13
225.296	18715.17
225.369	18722.3
225.442	18727.31
225.514	18753.96
225.587	18781.62
225.66	18804.46
225.733	18817.52
225.806	18838.82
225.879	18860.31
225.952	18871.16
226.025	18901.76
226.097	18935.2
226.17	18949.27
226.243	18946.96
226.316	18952.79
226.389	18965.27
226.461	18988.74
226.534	19018.23
226.607	19029.17
226.68	19067.48
226.753	19075.34
226.825	19051.43
226.898	19075.53
226.971	19099.09
227.044	19117.12
227.117	19111.24
227.189	19123.28
227.262	19144.73
227.335	19156.05
227.407	19156.44
227.48	19166.94
227.553	19178.12
227.626	19170.75
227.698	19169.74
227.771	19183.91
227.844	19182.61
227.916	19193.16
227.989	19177.84
228.062	19166.46
228.134	19188.63
228.207	19178.41
228.28	19172.34
228.352	19171.96
228.425	19170.66
228.498	19159.19
228.57	19144.58
228.643	19174.9
228.716	19167.09
228.788	19155.28
228.861	19151.72
228.934	19167.96
229.006	19166.46
229.079	19167.09
229.151	19156.97
229.224	19139.33
229.296	19140.92
229.369	19172.49
229.442	19169.88
229.514	19161.16
229.587	19173.93
229.659	19148.15
229.732	19159.67
229.804	19165.79
229.877	19188.15
229.949	19203.14
230.022	19229.3
230.094	19233.74
230.167	19221.69
230.239	19211.86
230.312	19201.3
230.384	19224.72
230.457	19218.85
230.529	19219.57
230.602	19210.17
230.674	19216.2
230.747	19220.92
230.819	19225.3
230.892	19179.76
230.964	19183.14
231.037	19187.71
231.109	19176.73
231.181	19175.86
231.254	19151.86
231.326	19136.25
231.399	19113.6
231.471	19088.78
231.544	19048.93
231.616	19046.28
231.688	19036.21
231.761	19021.89
231.833	19015.05
231.905	18971.49
231.978	18960.11
232.05	18947.06
232.122	18938.72
232.195	18917.85
232.267	18924.94
232.339	18910.33
232.412	18919.15
232.484	18905.37
232.556	18891.44
232.629	18903.64
232.701	18900.07
232.773	18893.23
232.846	18885.95
232.918	18885.08
232.99	18877.47
233.062	18886.96
233.135	18884.79
233.207	18859.25
233.279	18851.45
233.351	18845.66
233.424	18835.11
233.496	18807.11
233.568	18814.87
233.64	18780.95
233.713	18766.1
233.785	18747.98
233.857	18739.94
233.929	18709.14
234.001	18706.59
234.074	18711.99
234.146	18670.45
234.218	18654.4
234.29	18633.87
234.362	18613.92
234.434	18573.25
234.507	18542.94
234.579	18506.7
234.651	18487.23
234.723	18486.07
234.795	18479.23
234.867	18458.7
234.939	18458.75
235.012	18446.6
235.084	18432.77
235.156	18428.44
235.228	18408.2
235.3	18382.75
235.372	18354.42
235.444	18350.46
235.516	18307.48
235.588	18286.42
235.66	18268.49
235.732	18228.59
235.804	18269.55
235.876	18252.01
235.948	18254.28
236.02	18233.94
236.092	18219.24
236.164	18193.41
236.236	18166.23
236.308	18140.64
236.38	18122.91
236.452	18086.81
236.524	18065.46
236.596	18054.52
236.668	18042.77
236.74	18031.78
236.812	18013.9
236.884	18004.65
236.956	17981.71
237.028	17950.09
237.1	17908.89
237.172	17908.75
237.244	17918.14
237.316	17848.6
237.388	17828.36
237.46	17800.36
237.532	17794.44
237.604	17755.93
237.675	17743.64
237.747	17727.69
237.819	17689.23
237.891	17664.32
237.963	17631.5
238.035	17608.7
238.107	17543.89
238.178	17531.16
238.25	17509.62
238.322	17515.98
238.394	17472.8
238.466	17449.67
238.538	17438.25
238.609	17422.54
238.681	17371.4
238.753	17319.36
238.825	17294.3
238.897	17265.52
238.968	17251.89
239.04	17223.11
239.112	17237.19
239.184	17208.61
239.255	17174.58
239.327	17163.11
239.399	17143.74
239.471	17130.44
239.542	17105.47
239.614	17106.82
239.686	17055.11
239.758	17032.17
239.829	16991.01
239.901	16986.77
239.973	16960.94
240.044	16934.96
240.116	16915.4
240.188	16888.5
240.259	16878.81
240.331	16857.95
240.403	16850.04
240.474	16806.38
240.546	16763.53
240.618	16709.17
240.689	16669.45
240.761	16648.97
240.833	16635.72
240.904	16599.81
240.976	16576.05
241.048	16559.95
241.119	16537.3
241.191	16521.73
241.262	16513.25
241.334	16479.75
241.405	16448.43
241.477	16415.46
241.549	16394.16
241.62	16372.08
241.692	16358.35
241.763	16342.01
241.835	16309.96
241.906	16269.9
241.978	16229.08
242.049	16225.18
242.121	16209.66
242.192	16202.67
242.264	16167.34
242.335	16115.62
242.407	16100.53
242.478	16067.42
242.55	16039.32
242.621	15995.22
242.693	15960.08
242.764	15922.59
242.836	15892.94
242.907	15865.86
242.979	15845.23
243.05	15815.97
243.122	15787.96
243.193	15757.65
243.264	15710.12
243.336	15679.42
243.407	15661.49
243.479	15658.74
243.55	15627.51
243.622	15605.19
243.693	15574.1
243.764	15560.7
243.836	15529.71
243.907	15494.81
243.978	15465.98
244.05	15444.73
244.121	15408.87
244.192	15389.73
244.264	15344.95
244.335	15324.95
244.407	15281.52
244.478	15259.39
244.549	15227.29
244.62	15183.09
244.692	15154.31
244.763	15133
244.834	15103.99
244.906	15074.49
244.977	15052.7
245.048	15039.11
245.119	15002.57
245.191	14961.26
245.262	14907.46
245.333	14904.18
245.405	14879.84
245.476	14859.74
245.547	14831.93
245.618	14814.81
245.689	14792.3
245.761	14773.65
245.832	14735.57
245.903	14720.48
245.974	14694.55
246.045	14671.89
246.117	14672.76
246.188	14637.9
246.259	14596.69
246.33	14572.63
246.401	14539.47
246.473	14490.83
246.544	14460.22
246.615	14448.32
246.686	14426.67
246.757	14416.16
246.828	14372.92
246.899	14360.39
246.97	14319.7
247.042	14287.45
247.113	14274.25
247.184	14275.11
247.255	14246.19
247.326	14230.76
247.397	14203.96
247.468	14179.76
247.539	14161.49
247.61	14117.82
247.681	14104.66
247.752	14096.46
247.823	14066.91
247.894	14054.86
247.965	14027.33
248.037	13990.22
248.108	13944.85
248.179	13915.25
248.25	13895.68
248.321	13889.27
248.392	13853.17
248.463	13853.6
248.534	13825.98
248.605	13802.79
248.675	13757.62
248.746	13736.89
248.817	13722.62
248.888	13697.51
248.959	13656.34
249.03	13630.6
249.101	13608.23
249.172	13576.7
249.243	13529.31
249.314	13512.88
249.385	13484.24
249.456	13466.21
249.527	13447.99
249.598	13436.52
249.669	13412.85
249.739	13387.35
249.81	13357.94
249.881	13321.69
249.952	13296.33
250.023	13274.83
250.094	13234.82
250.165	13202.04
250.235	13176.68
250.306	13146.8
250.377	13121.58
250.448	13107.84
250.519	13061.33
250.59	13052.79
250.66	13024.88
250.731	13025.65
250.802	13002.61
250.873	12984.2
250.944	12964.72
251.014	12934.83
251.085	12933.29
251.156	12922.11
251.227	12913.33
251.297	12904.41
251.368	12890.97
251.439	12871.83
251.51	12858.43
251.58	12834.61
251.651	12810.46
251.722	12800.48
251.792	12761.44
251.863	12737.38
251.934	12730.2
252.005	12738.97
252.075	12710.39
252.146	12712.07
252.217	12700.41
252.287	12691.88
252.358	12669.7
252.429	12670.76
252.499	12641.17
252.57	12623.96
252.641	12607.61
252.711	12586.02
252.782	12554.78
252.852	12558.83
252.923	12541.48
252.994	12522
253.064	12516.22
253.135	12492.79
253.205	12467.92
253.276	12466.71
253.347	12463.15
253.417	12436.58
253.488	12413.64
253.558	12392
253.629	12363.32
253.699	12346.83
253.77	12334.92
253.841	12309.62
253.911	12284.65
253.982	12270.48
254.052	12252.5
254.123	12242.13
254.193	12227.53
254.264	12240.93
254.334	12207.96
254.405	12169.68
254.475	12142.02
254.546	12119.31
254.616	12110.73
254.687	12099.89
254.757	12079.21
254.827	12057.37
254.898	12042.19
254.968	12021.85
255.039	11997.75
255.109	11983.72
255.18	11952.34
255.25	11905.93
255.321	11897.15
255.391	11863.41
255.461	11869.1
255.532	11824.42
255.602	11800.75
255.673	11758.43
255.743	11734.38
255.813	11690.23
255.884	11689.89
255.954	11682.62
256.024	11678.52
256.095	11665.12
256.165	11629.12
256.235	11617.93
256.306	11598.37
256.376	11594.99
256.446	11594.08
256.517	11586.27
256.587	11581.98
256.657	11573.69
256.728	11563.95
256.798	11544.58
256.868	11524.72
256.938	11494.98
257.009	11495.37
257.079	11484.81
257.149	11494.65
257.219	11445.53
257.29	11437.53
257.36	11402.3
257.43	11389.97
257.5	11351.7
257.571	11324.81
257.641	11312.71
257.711	11286.01
257.781	11268.9
257.852	11247.31
257.922	11204.8
257.992	11184.8
258.062	11163.16
258.132	11153.38
258.202	11137.28
258.273	11115.84
258.343	11124.27
258.413	11101.14
258.483	11075.07
258.553	11046.92
258.623	11021.62
258.693	11014.1
258.764	11021.67
258.834	11025.14
258.904	11012.08
258.974	10983.84
259.044	10970.74
259.114	10961.34
259.184	10948.14
259.254	10930.69
259.324	10891.23
259.394	10882.79
259.464	10881.64
259.535	10856.39
259.605	10832.77
259.675	10803.81
259.745	10798.75
259.815	10765.22
259.885	10743.63
259.955	10757.56
260.025	10728.84
260.095	10715.44
260.165	10703.11
260.235	10696.46
260.305	10663.84
260.375	10630.93
260.445	10646.44
260.515	10645.67
260.585	10647.5
260.655	10631.46
260.725	10631.94
260.795	10626.83
260.865	10631.07
260.934	10606.26
261.004	10601.1
261.074	10586.6
261.144	10591.66
261.214	10590.55
261.284	10575.18
261.354	10576.29
261.424	10553.83
261.494	10560.62
261.564	10539.95
261.634	10537.5
261.703	10499.96
261.773	10493.6
261.843	10490.62
261.913	10468.02
261.983	10435.02
262.053	10421.76
262.123	10409.19
262.192	10376.96
262.262	10371.52
