Data from 20250704_urea_0.1M_MAYP1162681_11-18-32-696.txt Node
Date: Fri Jul 04 11:18:32 BST 2025
User: adleo
Spectrometer: MAYP116268
Trigger mode: 0
Integration Time (sec): 1.000000E0
Scans to average: 1
Electric dark correction enabled: true
Nonlinearity correction enabled: true
Boxcar width: 10
XAxis mode: Wavelengths
Number of Pixels in Spectrum: 2068
>>>>>Begin Spectral Data<<<<<
179.565	1241.1
179.642	1298.29
179.718	1344.85
179.795	1384.18
179.871	1418
179.948	1435.74
180.024	1459.85
180.101	1482.45
180.177	1498.15
180.254	1522.66
180.33	1544.93
180.407	1599.53
180.483	1698.35
180.56	1791.95
180.636	1878.4
180.712	1867.94
180.789	1877.21
180.865	1888.76
180.942	1899.12
181.018	1907.35
181.095	1921.95
181.171	1928.7
181.248	1928.55
181.324	1942.97
181.4	1950.29
181.477	1961.13
181.553	1976.29
181.63	1996.36
181.706	2014.44
181.782	2023.66
181.859	2021.38
181.935	2028.84
182.011	2029.32
182.088	2043.54
182.164	2059.81
182.24	2074.74
182.317	2082.54
182.393	2079.88
182.469	2097.52
182.546	2110.46
182.622	2116.07
182.698	2110.55
182.775	2123.11
182.851	2138.9
182.927	2131.91
183.003	2126.49
183.08	2122.78
183.156	2130.58
183.232	2123.3
183.308	2112.17
183.385	2119.35
183.461	2139
183.537	2136.24
183.613	2147.66
183.69	2140.95
183.766	2134.86
183.842	2139.71
183.918	2144.18
183.995	2160.88
184.071	2162.78
184.147	2157.12
184.223	2145.8
184.299	2158.46
184.375	2146.09
184.452	2155.52
184.528	2205.43
184.604	2220.03
184.68	2232.02
184.756	2240.78
184.832	2245.34
184.908	2246.25
184.985	2244.25
185.061	2225.36
185.137	2239.69
185.213	2228.93
185.289	2232.36
185.365	2223.84
185.441	2223.18
185.517	2236.08
185.593	2230.22
185.669	2225.7
185.745	2236.36
185.822	2252.96
185.898	2245.2
185.974	2256.86
186.05	2246
186.126	2211.89
186.202	2205.13
186.278	2199.71
186.354	2190.14
186.43	2198.47
186.506	2199.56
186.582	2203.42
186.658	2213.6
186.734	2187.58
186.81	2189.86
186.886	2189.29
186.962	2202.66
187.038	2200.56
187.114	2193.71
187.19	2200.8
187.266	2192.09
187.341	2193.81
187.417	2187.67
187.493	2187.19
187.569	2186.77
187.645	2181.87
187.721	2170.44
187.797	2176.25
187.873	2180.77
187.949	2178.82
188.025	2172.06
188.101	2173.53
188.176	2175.06
188.252	2167.02
188.328	2180.33
188.404	2180.33
188.48	2175.29
188.556	2168.25
188.632	2168.49
188.707	2167.63
188.783	2164.3
188.859	2160.16
188.935	2150.79
189.011	2160.87
189.086	2157.16
189.162	2149.31
189.238	2145.41
189.314	2143.04
189.39	2137.66
189.465	2129.52
189.541	2142.9
189.617	2130.86
189.693	2127.72
189.768	2131.91
189.844	2160.61
189.92	2150.86
189.996	2159.04
190.071	2169.56
190.147	2166.56
190.223	2176.08
190.298	2172.08
190.374	2161.28
190.45	2174.07
190.526	2182.12
190.601	2174.65
190.677	2173.41
190.753	2203.97
190.828	2209.73
190.904	2226.67
190.98	2243.09
191.055	2251.36
191.131	2241.8
191.207	2262.11
191.282	2271.53
191.358	2262.64
191.433	2247.02
191.509	2261.24
191.585	2258.62
191.66	2262.91
191.736	2274.14
191.811	2261.86
191.887	2274.52
191.963	2298.41
192.038	2303.64
192.114	2303.17
192.189	2306.12
192.265	2305.07
192.34	2280.98
192.416	2277.46
192.491	2272.7
192.567	2273.51
192.642	2276.27
192.718	2275.37
192.793	2261.95
192.869	2257.76
192.944	2259.66
193.02	2264.85
193.095	2266.99
193.171	2271.13
193.246	2267.42
193.322	2263.94
193.397	2267.42
193.473	2254.38
193.548	2237.19
193.624	2243.29
193.699	2242
193.775	2256.8
193.85	2258.56
193.925	2266.89
194.001	2269.79
194.076	2258.37
194.152	2247.24
194.227	2242.29
194.302	2230.73
194.378	2234.25
194.453	2230.68
194.529	2243.67
194.604	2230.35
194.679	2225.16
194.755	2207.23
194.83	2219.37
194.905	2216.75
194.981	2224.27
195.056	2219.23
195.131	2220.8
195.207	2219.04
195.282	2208.52
195.357	2190.48
195.433	2203.85
195.508	2195.15
195.583	2202.24
195.659	2219.94
195.734	2228.74
195.809	2226.56
195.884	2239.35
195.96	2240.4
196.035	2257.38
196.11	2254.15
196.185	2268.28
196.261	2271.42
196.336	2303.83
196.411	2290.17
196.486	2292.78
196.561	2289.4
196.637	2295.83
196.712	2315.77
196.787	2317.39
196.862	2333.76
196.937	2344.23
197.013	2351.37
197.088	2359.51
197.163	2378.37
197.238	2394.23
197.313	2396.04
197.388	2411.32
197.464	2444.7
197.539	2454.08
197.614	2449.37
197.689	2460.51
197.764	2473.84
197.839	2492.93
197.914	2485.65
197.989	2511.02
198.065	2529.45
198.14	2578.96
198.215	2609.54
198.29	2620.45
198.365	2634.36
198.44	2647.83
198.515	2680.18
198.59	2696.28
198.665	2724.06
198.74	2735.49
198.815	2733.97
198.89	2753.07
198.965	2782.91
199.04	2772.8
199.115	2791.43
199.19	2832.21
199.265	2835.55
199.34	2848.22
199.415	2885.94
199.49	2907.62
199.565	2915.72
199.64	2936.64
199.715	2934.83
199.79	2940.5
199.865	2949.32
199.94	2944.18
200.015	2975.07
200.09	2977.94
200.165	2983.75
200.24	2989.23
200.315	3028.08
200.39	3047.96
200.464	3056.59
200.539	3059.55
200.614	3077.75
200.689	3103.7
200.764	3110.47
200.839	3128.15
200.914	3134.11
200.989	3122.23
201.063	3140.07
201.138	3125.06
201.213	3124.54
201.288	3103.6
201.363	3108.8
201.438	3107.27
201.512	3129.63
201.587	3112.84
201.662	3118.18
201.737	3133.2
201.812	3142.79
201.886	3111.1
201.961	3122.84
202.036	3111.4
202.111	3110.63
202.186	3083.95
202.26	3066.15
202.335	3049.94
202.41	3049.27
202.485	3032.63
202.559	3015.8
202.634	2991.3
202.709	3003.21
202.784	2990.57
202.858	2997.53
202.933	2985.23
203.008	2987.28
203.082	2972.22
203.157	2979.75
203.232	2947.29
203.306	2934.61
203.381	2914.53
203.456	2901.14
203.53	2890.3
203.605	2884.49
203.68	2874.52
203.754	2886.77
203.829	2890.25
203.904	2889.44
203.978	2896.78
204.053	2928.78
204.127	2942.56
204.202	2967.02
204.277	2982.7
204.351	3010.22
204.426	3034.79
204.5	3058.88
204.575	3063.12
204.65	3117.76
204.724	3150.03
204.799	3202.63
204.873	3246.93
204.948	3298.66
205.022	3342.51
205.097	3391.9
205.171	3466.79
205.246	3542.21
205.32	3605.45
205.395	3680.61
205.469	3745.5
205.544	3831.92
205.618	3895.16
205.693	3992.53
205.767	4069.49
205.842	4181.17
205.916	4265.91
205.991	4358.52
206.065	4472.59
206.14	4593.55
206.214	4698.15
206.289	4810.69
206.363	4939.7
206.438	5062.01
206.512	5193.63
206.586	5342.59
206.661	5482.03
206.735	5592.78
206.81	5728.1
206.884	5886.29
206.958	6015.58
207.033	6178.53
207.107	6336.94
207.181	6521.26
207.256	6670.22
207.33	6844.01
207.405	7015.81
207.479	7200.3
207.553	7369.87
207.628	7521.5
207.702	7702.38
207.776	7866.89
207.851	8038.96
207.925	8233.66
207.999	8409.49
208.073	8588.59
208.148	8770.02
208.222	8942.39
208.296	9165.07
208.371	9366.63
208.445	9565.78
208.519	9783.52
208.593	9981.69
208.668	10165.8
208.742	10354.7
208.816	10541.99
208.89	10750.07
208.965	10944.65
209.039	11142.21
209.113	11349.22
209.187	11554.59
209.261	11743.4
209.336	11960.08
209.41	12172.1
209.484	12364.85
209.558	12583.2
209.632	12790.51
209.707	12992.57
209.781	13199.65
209.855	13399.45
209.929	13604.56
210.003	13797.19
210.077	13979.54
210.151	14212.61
210.226	14439.98
210.3	14655.44
210.374	14866.62
210.448	15047.67
210.522	15230.69
210.596	15423.69
210.67	15619.53
210.744	15849.88
210.818	16057.38
210.892	16250.66
210.966	16417.47
211.041	16608.67
211.115	16776.59
211.189	16962.53
211.263	17157.14
211.337	17334.64
211.411	17518.45
211.485	17678.89
211.559	17860.19
211.633	18024.39
211.707	18158.5
211.781	18320.95
211.855	18444.95
211.929	18587.84
212.003	18734.68
212.077	18904.26
212.151	19075.44
212.225	19227.82
212.299	19363.04
212.373	19499.47
212.447	19638.21
212.52	19814.64
212.594	19953.39
212.668	20103.7
212.742	20225.48
212.816	20354.69
212.89	20488.42
212.964	20621.1
213.038	20761.11
213.112	20902.52
213.186	21050
213.26	21165.04
213.333	21242.69
213.407	21368.82
213.481	21503.53
213.555	21630.97
213.629	21737.3
213.703	21827.15
213.777	21944.15
213.85	22043.5
213.924	22189.08
213.998	22307.87
214.072	22422.57
214.146	22514.41
214.219	22619.89
214.293	22728.17
214.367	22832.51
214.441	22934.24
214.515	23018.81
214.588	23096.35
214.662	23154.11
214.736	23234.44
214.81	23319.21
214.883	23413.62
214.957	23500.17
215.031	23573.42
215.105	23635.09
215.178	23702.6
215.252	23783.62
215.326	23848.3
215.4	23898.84
215.473	23935.64
215.547	23982.96
215.621	24032.4
215.694	24116.38
215.768	24164.62
215.842	24223.9
215.915	24271.18
215.989	24316.23
216.063	24372.67
216.136	24430.85
216.21	24484.44
216.284	24544.65
216.357	24607.26
216.431	24660.67
216.504	24716.01
216.578	24798.27
216.652	24870.88
216.725	24929.4
216.799	24991.36
216.873	25035.8
216.946	25100.83
217.02	25137.79
217.093	25189.71
217.167	25209.69
217.24	25229.24
217.314	25275.03
217.387	25297.66
217.461	25334.67
217.535	25389.3
217.608	25421.35
217.682	25465.56
217.755	25528.73
217.829	25559.14
217.902	25600.06
217.976	25639.93
218.049	25672.36
218.123	25692.1
218.196	25728.35
218.27	25751.96
218.343	25772.52
218.417	25814.03
218.49	25853.71
218.563	25903.91
218.637	25939.34
218.71	26002.05
218.784	26046.31
218.857	26088.94
218.931	26140.45
219.004	26170.23
219.077	26208.95
219.151	26243.95
219.224	26268.24
219.298	26296.34
219.371	26339.02
219.444	26356.4
219.518	26389.61
219.591	26422.49
219.665	26479.52
219.738	26510.43
219.811	26532.63
219.885	26567.54
219.958	26601.35
220.031	26615.35
220.105	26644.13
220.178	26675.81
220.251	26692.28
220.325	26726.27
220.398	26746.41
220.471	26760.37
220.544	26792.09
220.618	26799.38
220.691	26819.33
220.764	26839.08
220.838	26868.15
220.911	26890.13
220.984	26927.22
221.057	26954.6
221.131	26967.64
221.204	26945.81
221.277	26974.93
221.35	27025.21
221.424	27030.47
221.497	27036.56
221.57	27058.58
221.643	27066.65
221.716	27067.81
221.79	27062.54
221.863	27057.42
221.936	27049.94
222.009	27064.71
222.082	27070.61
222.155	27073.7
222.229	27100.26
222.302	27103.88
222.375	27096.54
222.448	27098.09
222.521	27092.15
222.594	27080.7
222.667	27068.14
222.74	27082.34
222.814	27066.84
222.887	27054.42
222.96	27069.64
223.033	27066.26
223.106	27057.52
223.179	27061.14
223.252	27060.99
223.325	27061.04
223.398	27057.66
223.471	27061.86
223.544	27057.32
223.617	27046.7
223.69	27040.28
223.763	27011
223.837	26998.5
223.91	26989.37
223.983	26946.48
224.056	26913.41
224.129	26903.6
224.202	26899.45
224.275	26865.98
224.348	26843.19
224.42	26808.32
224.493	26767.75
224.566	26739.69
224.639	26734.28
224.712	26707.63
224.785	26684.59
224.858	26655.76
224.931	26633.74
225.004	26605.54
225.077	26584.78
225.15	26546.39
225.223	26524.08
225.296	26515.49
225.369	26484.83
225.442	26451.07
225.514	26439.2
225.587	26436.44
225.66	26418.43
225.733	26398.25
225.806	26384.73
225.879	26361.12
225.952	26327.38
226.025	26317.19
226.097	26333.03
226.17	26298.31
226.243	26265.19
226.316	26237.53
226.389	26216.29
226.461	26198.04
226.534	26167.48
226.607	26128.14
226.68	26121.23
226.753	26098.16
226.825	26049.01
226.898	26039.65
226.971	26009.72
227.044	25981.29
227.117	25945.18
227.189	25909.17
227.262	25888.75
227.335	25862.49
227.407	25825.86
227.48	25801.44
227.553	25769.29
227.626	25711.98
227.698	25673.9
227.771	25642.15
227.844	25602.76
227.916	25589.34
227.989	25538.57
228.062	25506.53
228.134	25504.16
228.207	25462.41
228.28	25417.29
228.352	25393.45
228.425	25358.7
228.498	25339.88
228.57	25317.73
228.643	25306.82
228.716	25279.61
228.788	25241.34
228.861	25198.25
228.934	25185.8
229.006	25162.39
229.079	25141.26
229.151	25098.36
229.224	25061.98
229.296	25029.22
229.369	25026.47
229.442	25002.87
229.514	24964.76
229.587	24950.57
229.659	24900.58
229.732	24876.41
229.804	24857.88
229.877	24862.9
229.949	24848.96
230.022	24841.43
230.094	24804.28
230.167	24770.8
230.239	24736.64
230.312	24705.76
230.384	24709.43
230.457	24676
230.529	24635.09
230.602	24590.17
230.674	24561.91
230.747	24546.04
230.819	24530.84
230.892	24460.65
230.964	24427.75
231.037	24412.22
231.109	24372.52
231.181	24346.9
231.254	24310.53
231.326	24272.96
231.399	24219.79
231.471	24165.62
231.544	24098.14
231.616	24063.51
231.688	24035.96
231.761	23995.69
231.833	23953.83
231.905	23884.9
231.978	23852.1
232.05	23827.84
232.122	23795.48
232.195	23758.93
232.267	23733.12
232.339	23691.94
232.412	23677.37
232.484	23621.38
232.556	23560.43
232.629	23545.81
232.701	23510.42
232.773	23472.61
232.846	23434.95
232.918	23396.56
232.99	23364.2
233.062	23344.05
233.135	23322.35
233.207	23258.02
233.279	23230.15
233.351	23197.36
233.424	23153.34
233.496	23109.03
233.568	23084.87
233.64	23036.12
233.713	23007.77
233.785	22960.76
233.857	22920.02
233.929	22862.5
234.001	22848.42
234.074	22837.09
234.146	22776.72
234.218	22735.98
234.29	22699.78
234.362	22644.77
234.434	22590.63
234.507	22531.62
234.579	22476.42
234.651	22425.36
234.723	22401.4
234.795	22357.63
234.867	22315.64
234.939	22298.28
235.012	22248.87
235.084	22207.31
235.156	22168.27
235.228	22113.36
235.3	22071.66
235.372	22037.58
235.444	22017.24
235.516	21951.97
235.588	21913.5
235.66	21876.48
235.732	21830.4
235.804	21844.28
235.876	21816.08
235.948	21788.9
236.02	21758.15
236.092	21710.77
236.164	21672.98
236.236	21627.57
236.308	21578.6
236.38	21539.9
236.452	21484.9
236.524	21453.19
236.596	21418.77
236.668	21380.45
236.74	21349.65
236.812	21316.01
236.884	21277.89
236.956	21228
237.028	21172.48
237.1	21120.33
237.172	21097.29
237.244	21064.42
237.316	20979.68
237.388	20941.37
237.46	20886.43
237.532	20861.51
237.604	20809.17
237.675	20774.66
237.747	20738.47
237.819	20692.01
237.891	20654.37
237.963	20604.78
238.035	20552.3
238.107	20480.35
238.178	20453.45
238.25	20394.51
238.322	20374.37
238.394	20305.79
238.466	20265.07
238.538	20239.82
238.609	20197.36
238.681	20124.06
238.753	20082.61
238.825	20039.19
238.897	19983.87
238.968	19961.17
239.04	19902.43
239.112	19882.47
239.184	19829.37
239.255	19783.3
239.327	19752.74
239.399	19711.25
239.471	19683.4
239.542	19650.39
239.614	19620.75
239.686	19548.42
239.758	19522.54
239.829	19456.95
239.901	19433.48
239.973	19391.94
240.044	19353.05
240.116	19312.67
240.188	19269.54
240.259	19213.06
240.331	19161.31
240.403	19140.83
240.474	19081.31
240.546	19030.42
240.618	18973.22
240.689	18924.94
240.761	18879.35
240.833	18847.49
240.904	18796.94
240.976	18755.36
241.048	18715.12
241.119	18678.83
241.191	18655.31
241.262	18628.28
241.334	18588.14
241.405	18537.68
241.477	18487.56
241.549	18437.35
241.62	18399.67
241.692	18363.96
241.763	18335.67
241.835	18298.61
241.906	18250.76
241.978	18194.13
242.049	18166.81
242.121	18141.7
242.192	18119.68
242.264	18070.04
242.335	18009.27
242.407	17979.15
242.478	17931.59
242.55	17896.36
242.621	17848.65
242.693	17800.7
242.764	17753.71
242.836	17699.11
242.907	17677.23
242.979	17648.7
243.05	17616.71
243.122	17578.73
243.193	17551.12
243.264	17499.26
243.336	17468.66
243.407	17443.45
243.479	17428.03
243.55	17394.68
243.622	17359.94
243.693	17313.38
243.764	17287.65
243.836	17239.4
243.907	17193.76
243.978	17146.48
244.05	17107.98
244.121	17058.77
244.192	17028.79
244.264	16972.84
244.335	16942.38
244.407	16878.62
244.478	16836.5
244.549	16791.53
244.62	16746.52
244.692	16704.49
244.763	16676.83
244.834	16617.45
244.906	16567.76
244.977	16537.06
245.048	16511.23
245.119	16462.16
245.191	16417.53
245.262	16361.38
245.333	16345.24
245.405	16307.88
245.476	16282.58
245.547	16246.29
245.618	16221.08
245.689	16187.73
245.761	16165.99
245.832	16128.73
245.903	16107.67
245.974	16080.92
246.045	16052.53
246.117	16030.98
246.188	15980.57
246.259	15930.78
246.33	15901.52
246.401	15862.09
246.473	15798.71
246.544	15752.59
246.615	15726.41
246.686	15685.88
246.757	15668.23
246.828	15616.71
246.899	15598.97
246.97	15547.35
247.042	15513.7
247.113	15490.61
247.184	15478.56
247.255	15430.17
247.326	15408.96
247.397	15372.38
247.468	15342.15
247.539	15304.99
247.61	15254.52
247.681	15232.73
247.752	15208.59
247.823	15164.29
247.894	15131.89
247.965	15099.74
248.037	15068.41
248.108	15020.06
248.179	14989.74
248.25	14954.41
248.321	14935.95
248.392	14897.72
248.463	14896.76
248.534	14861.33
248.605	14830.48
248.675	14794.95
248.746	14762.03
248.817	14727.18
248.888	14695.94
248.959	14642.92
249.03	14614.82
249.101	14588.98
249.172	14553.31
249.243	14502.35
249.314	14487.94
249.385	14458.63
249.456	14434.43
249.527	14397.84
249.598	14381.26
249.669	14352.53
249.739	14325.68
249.81	14296.27
249.881	14239.73
249.952	14206.71
250.023	14172.48
250.094	14133.72
250.165	14089.81
250.235	14068.55
250.306	14045.08
250.377	14009.35
250.448	13990.75
250.519	13952.42
250.59	13943.07
250.66	13907.49
250.731	13904.99
250.802	13873.7
250.873	13852.44
250.944	13831.57
251.014	13803.13
251.085	13795.22
251.156	13774.78
251.227	13761.57
251.297	13744.32
251.368	13739.88
251.439	13716.36
251.51	13703.24
251.58	13653.3
251.651	13621.39
251.722	13605.63
251.792	13551.25
251.863	13524.45
251.934	13510.61
252.005	13502.8
252.075	13471.85
252.146	13460.76
252.217	13445.58
252.287	13437.72
252.358	13406.48
252.429	13399.11
252.499	13361.31
252.57	13337.16
252.641	13315.61
252.711	13287.08
252.782	13258.15
252.852	13251.02
252.923	13224.26
252.994	13191.92
253.064	13187.29
253.135	13154.36
253.205	13124.48
253.276	13122.02
253.347	13113.15
253.417	13074.25
253.488	13046.77
253.558	13016.45
253.629	12990.46
253.699	12964.77
253.77	12951.9
253.841	12932.04
253.911	12903.64
253.982	12888.46
254.052	12870.14
254.123	12852.3
254.193	12833.21
254.264	12841.55
254.334	12805.16
254.405	12780.28
254.475	12754.5
254.546	12730.34
254.616	12723.4
254.687	12704.31
254.757	12680.98
254.827	12662.18
254.898	12647.72
254.968	12627.91
255.039	12597.49
255.109	12585.78
255.18	12551.02
255.25	12499.3
255.321	12483.59
255.391	12449.17
255.461	12451.14
255.532	12408.24
255.602	12381.25
255.673	12335.07
255.743	12300.99
255.813	12254.38
255.884	12241.02
255.954	12224.63
256.024	12222.37
256.095	12198.75
256.165	12161.73
256.235	12152.19
256.306	12120.85
256.376	12112.66
256.446	12102.83
256.517	12094.39
256.587	12075.93
256.657	12066.19
256.728	12053.32
256.798	12035.73
256.868	12015
256.938	11980.01
257.009	11965.07
257.079	11952.1
257.149	11962.95
257.219	11919.66
257.29	11906.65
257.36	11869.2
257.43	11863.56
257.5	11818.83
257.571	11797.52
257.641	11789.33
257.711	11754
257.781	11742.29
257.852	11730.24
257.922	11684.88
257.992	11659.53
258.062	11638.9
258.132	11622.9
258.202	11598.17
258.273	11583.38
258.343	11581.26
258.413	11550.46
258.483	11528.53
258.553	11495.66
258.623	11462.64
258.693	11453.92
258.764	11450.11
258.834	11440.42
258.904	11423.12
258.974	11404.33
259.044	11383.84
259.114	11373.77
259.184	11359.17
259.254	11335.89
259.324	11291.55
259.394	11281.81
259.464	11283.07
259.535	11265.43
259.605	11243.4
259.675	11218.2
259.745	11198.87
259.815	11164.13
259.885	11147.74
259.955	11163.02
260.025	11137.87
260.095	11124.03
260.165	11111.46
260.235	11113.14
260.305	11094.2
260.375	11056.66
260.445	11059.22
260.515	11052.85
260.585	11045.67
260.655	11028.95
260.725	11019.02
260.795	11007.85
260.865	11008.76
260.934	10980.09
261.004	10972.38
261.074	10952.38
261.144	10953.44
261.214	10948.47
261.284	10942.07
261.354	10937.1
261.424	10903.75
261.494	10911.22
261.564	10889.58
261.634	10877.1
261.703	10838.55
261.773	10820.34
261.843	10819.47
