Data from 20250704_urea_0.1M_MAYP1162681_11-18-43-695.txt Node
Date: Fri Jul 04 11:18:43 BST 2025
User: adleo
Spectrometer: MAYP116268
Trigger mode: 0
Integration Time (sec): 1.000000E0
Scans to average: 1
Electric dark correction enabled: true
Nonlinearity correction enabled: true
Boxcar width: 10
XAxis mode: Wavelengths
Number of Pixels in Spectrum: 2068
>>>>>Begin Spectral Data<<<<<
179.565	1243.4
179.642	1303.96
179.718	1351.89
179.795	1390.06
179.871	1424.4
179.948	1444.65
180.024	1466.16
180.101	1492.93
180.177	1507.12
180.254	1531.46
180.33	1553.77
180.407	1611.13
180.483	1709.47
180.56	1803.55
180.636	1891.43
180.712	1877.45
180.789	1887.72
180.865	1899.36
180.942	1908.87
181.018	1918.09
181.095	1929.22
181.171	1936.02
181.248	1935.16
181.324	1949.48
181.4	1956.99
181.477	1968.93
181.553	1981.67
181.63	2002.97
181.706	2016.96
181.782	2023.37
181.859	2021.04
181.935	2027.89
182.011	2022.95
182.088	2036.31
182.164	2054.63
182.24	2065.52
182.317	2076.83
182.393	2075.17
182.469	2093.72
182.546	2106.27
182.622	2111.36
182.698	2109.51
182.775	2120.73
182.851	2135.81
182.927	2126.82
183.003	2125.16
183.08	2117.88
183.156	2125.49
183.232	2120.92
183.308	2108.6
183.385	2119.3
183.461	2137.52
183.537	2139.05
183.613	2154.55
183.69	2150.89
183.766	2139.9
183.842	2146.75
183.918	2149.13
183.995	2165.21
184.071	2166.39
184.147	2162.11
184.223	2150.37
184.299	2162.98
184.375	2151.13
184.452	2157.65
184.528	2207.37
184.604	2216.27
184.68	2228.06
184.756	2237.44
184.832	2241.63
184.908	2249.43
184.985	2248.95
185.061	2234.06
185.137	2241.2
185.213	2227.4
185.289	2227.21
185.365	2221.22
185.441	2220.46
185.517	2237.07
185.593	2232.55
185.669	2229.17
185.745	2237.97
185.822	2256.62
185.898	2248.48
185.974	2259.04
186.05	2248.71
186.126	2216.74
186.202	2211.51
186.278	2206.18
186.354	2195.47
186.43	2203.75
186.506	2199.99
186.582	2199.04
186.658	2204.8
186.734	2183.73
186.81	2186.68
186.886	2189.77
186.962	2201.47
187.038	2199.04
187.114	2191.28
187.19	2195.23
187.266	2188.48
187.341	2188.95
187.417	2178.54
187.493	2178.73
187.569	2181.34
187.645	2177.06
187.721	2162.31
187.797	2167.97
187.873	2175.06
187.949	2167.78
188.025	2163.02
188.101	2166.54
188.176	2172.39
188.252	2168.11
188.328	2179.19
188.404	2177.15
188.48	2169.87
188.556	2163.4
188.632	2165.07
188.707	2164.16
188.783	2163.3
188.859	2157.6
188.935	2145.75
189.011	2158.64
189.086	2152.41
189.162	2143.23
189.238	2139.19
189.314	2140.66
189.39	2136.29
189.465	2127.25
189.541	2147.28
189.617	2133.53
189.693	2125.77
189.768	2126.54
189.844	2153.28
189.92	2144.34
189.996	2156.48
190.071	2168.89
190.147	2166.37
190.223	2171.94
190.298	2165.8
190.374	2154.86
190.45	2166.56
190.526	2175.03
190.601	2163.61
190.677	2165.6
190.753	2191.88
190.828	2198.54
190.904	2212.62
190.98	2226.57
191.055	2239.08
191.131	2228.23
191.207	2244.88
191.282	2256.63
191.358	2249.64
191.433	2234.31
191.509	2245.34
191.585	2240.06
191.66	2241.91
191.736	2252.29
191.811	2241.63
191.887	2256.29
191.963	2278.66
192.038	2283.99
192.114	2286.03
192.189	2291.93
192.265	2287.51
192.34	2267.9
192.416	2265.66
192.491	2260.47
192.567	2263.61
192.642	2267.8
192.718	2268.71
192.793	2255.57
192.869	2250.39
192.944	2251.34
193.02	2258.05
193.095	2264.81
193.171	2274.33
193.246	2276.51
193.322	2274.42
193.397	2280.99
193.473	2267.89
193.548	2249.86
193.624	2254.33
193.699	2253.43
193.775	2270.52
193.85	2272.51
193.925	2282.94
194.001	2283.13
194.076	2274.89
194.152	2264.85
194.227	2252.48
194.302	2242.54
194.378	2248.82
194.453	2247.67
194.529	2261.71
194.604	2245.44
194.679	2237.21
194.755	2213.85
194.83	2222.85
194.905	2217.33
194.981	2223.42
195.056	2214.67
195.131	2220.42
195.207	2219.04
195.282	2208.72
195.357	2187.16
195.433	2202.43
195.508	2190.2
195.583	2197.67
195.659	2211.04
195.734	2216.37
195.809	2219.8
195.884	2229.6
195.96	2231.31
196.035	2247.11
196.11	2242.92
196.185	2255.05
196.261	2260.09
196.336	2292.55
196.411	2277.79
196.486	2284.4
196.561	2280.41
196.637	2292.16
196.712	2308.49
196.787	2313.01
196.862	2330.28
196.937	2345.04
197.013	2352.08
197.088	2362.08
197.163	2385.31
197.238	2407.27
197.313	2406.8
197.388	2420.32
197.464	2452.37
197.539	2461.51
197.614	2457.6
197.689	2469.6
197.764	2486.6
197.839	2505.74
197.914	2500.45
197.989	2527.17
198.065	2541.31
198.14	2590.67
198.215	2611.39
198.29	2621.97
198.365	2634.3
198.44	2643.92
198.515	2668.46
198.59	2684.03
198.665	2710.76
198.74	2716.76
198.815	2714.19
198.89	2739.67
198.965	2767.55
199.04	2758.4
199.115	2774.93
199.19	2815.06
199.265	2817.25
199.34	2830.07
199.415	2865.64
199.49	2888.31
199.565	2895.65
199.64	2920.91
199.715	2917.72
199.79	2928.87
199.865	2937.78
199.94	2937.64
200.015	2970.92
200.09	2974.02
200.165	2981.08
200.24	2989.04
200.315	3030.89
200.39	3049.63
200.464	3059.02
200.539	3063.17
200.614	3086.76
200.689	3109.56
200.764	3117.43
200.839	3137.11
200.914	3140.69
200.989	3129.29
201.063	3141.11
201.138	3123.67
201.213	3124.39
201.288	3107.7
201.363	3115.42
201.438	3115.71
201.512	3131.34
201.587	3110.5
201.662	3118.42
201.737	3133.11
201.812	3142.17
201.886	3109.1
201.961	3119.55
202.036	3105.87
202.111	3103.86
202.186	3075.98
202.26	3059.24
202.335	3039.2
202.41	3034.72
202.485	3023.33
202.559	3006.98
202.634	2987.43
202.709	3002.82
202.784	2987.61
202.858	2993.28
202.933	2977.36
203.008	2974.98
203.082	2964.82
203.157	2976.41
203.232	2944.72
203.306	2930.03
203.381	2907.04
203.456	2894.93
203.53	2884.77
203.605	2880.05
203.68	2869.85
203.754	2878.9
203.829	2883.05
203.904	2881.9
203.978	2897.4
204.053	2923.96
204.127	2935.02
204.202	2960.63
204.277	2969.83
204.351	2995.77
204.426	3020.06
204.5	3050.1
204.575	3055.25
204.65	3102.3
204.724	3135.53
204.799	3185.69
204.873	3233.95
204.948	3284.01
205.022	3328.72
205.097	3375.48
205.171	3447.5
205.246	3521.11
205.32	3589.8
205.395	3661.74
205.469	3729.35
205.544	3809.18
205.618	3872.03
205.693	3971.64
205.767	4049.42
205.842	4165.2
205.916	4257.31
205.991	4349.4
206.065	4456.19
206.14	4578.58
206.214	4685.46
206.289	4793.44
206.363	4925.41
206.438	5047.2
206.512	5177.23
206.586	5323.79
206.661	5466.24
206.735	5577.62
206.81	5714.18
206.884	5866.92
206.958	6004.83
207.033	6168.8
207.107	6326.13
207.181	6510.26
207.256	6660.61
207.33	6838.88
207.405	7006.06
207.479	7186.43
207.553	7355.28
207.628	7507.33
207.702	7687.53
207.776	7856.6
207.851	8029.48
207.925	8217.77
207.999	8384.36
208.073	8572.5
208.148	8754.74
208.222	8919.7
208.296	9137.51
208.371	9340.51
208.445	9542.26
208.519	9753.41
208.593	9950.77
208.668	10132.84
208.742	10318.17
208.816	10510.47
208.89	10718.52
208.965	10916.61
209.039	11116.3
209.113	11325.19
209.187	11542.17
209.261	11735.99
209.336	11942.7
209.41	12157.17
209.484	12360.33
209.558	12584.12
209.632	12788.06
209.707	12999.76
209.781	13211.75
209.855	13417.77
209.929	13624.81
210.003	13815.17
210.077	13999.16
210.151	14234.15
210.226	14451.94
210.3	14671.59
210.374	14875.45
210.448	15058.66
210.522	15248.77
210.596	15440.18
210.67	15629.85
210.744	15861.11
210.818	16065
210.892	16263.82
210.966	16426.58
211.041	16608.43
211.115	16765.94
211.189	16954.72
211.263	17133.86
211.337	17318.74
211.411	17496.53
211.485	17659.37
211.559	17838.6
211.633	18004
211.707	18136.57
211.781	18309.77
211.855	18434.49
211.929	18591.69
212.003	18725.18
212.077	18889.71
212.151	19053.22
212.225	19212.2
212.299	19348.58
212.373	19479.66
212.447	19623.42
212.52	19806.16
212.594	19951.65
212.668	20118.98
212.742	20247.36
212.816	20371.89
212.89	20494.49
212.964	20635.22
213.038	20762.56
213.112	20906.62
213.186	21047.11
213.26	21147.45
213.333	21219.69
213.407	21342.11
213.481	21460.05
213.555	21588.6
213.629	21679.21
213.703	21774.75
213.777	21888.99
213.85	21973.4
213.924	22132.34
213.998	22238.69
214.072	22339.74
214.146	22429.46
214.219	22520.92
214.293	22615.46
214.367	22717.95
214.441	22822.77
214.515	22904.93
214.588	22972.96
214.662	23022.48
214.736	23103
214.81	23214.19
214.883	23328.75
214.957	23416.7
215.031	23497.47
215.105	23564.88
215.178	23638.9
215.252	23722.14
215.326	23775.19
215.4	23836
215.473	23865.37
215.547	23915.49
215.621	23982.44
215.694	24068.49
215.768	24127.24
215.842	24186.67
215.915	24240.45
215.989	24284.88
216.063	24338.81
216.136	24423.08
216.21	24488.35
216.284	24567.95
216.357	24622.61
216.431	24673.37
216.504	24733.72
216.578	24808.41
216.652	24883.48
216.725	24950.35
216.799	25023.6
216.873	25098.44
216.946	25161.16
217.02	25204.44
217.093	25262.93
217.167	25282.91
217.24	25310.22
217.314	25355.77
217.387	25396.11
217.461	25438.97
217.535	25509.23
217.608	25543.55
217.682	25576.08
217.755	25628
217.829	25651.51
217.902	25680.66
217.976	25712.32
218.049	25747.07
218.123	25761.84
218.196	25789.94
218.27	25814.79
218.343	25815.81
218.417	25836.85
218.49	25871.46
218.563	25928.43
218.637	25967.38
218.71	26022.9
218.784	26074.9
218.857	26103.47
218.931	26136.83
219.004	26173.37
219.077	26201.72
219.151	26237.15
219.224	26262.3
219.298	26290.21
219.371	26324.39
219.444	26354.18
219.518	26388.89
219.591	26409.07
219.665	26467.98
219.738	26488.94
219.811	26513.51
219.885	26553.3
219.958	26577.73
220.031	26596.41
220.105	26611.92
220.178	26632.87
220.251	26653.16
220.325	26667.36
220.398	26697.73
220.471	26721.2
220.544	26741.38
220.618	26754.57
220.691	26779.34
220.764	26794.16
220.838	26820.97
220.911	26831.16
220.984	26863.85
221.057	26890.08
221.131	26918.57
221.204	26897.03
221.277	26937.79
221.35	26973.77
221.424	26985.75
221.497	26999.7
221.57	27007.24
221.643	27028.01
221.716	27050.42
221.79	27042.16
221.863	27052.79
221.936	27056.99
222.009	27060.22
222.082	27064.81
222.155	27047.43
222.229	27060.61
222.302	27074.47
222.375	27070.61
222.448	27078.58
222.521	27071.62
222.594	27057.33
222.667	27038.06
222.74	27058.97
222.814	27053.85
222.887	27047.67
222.96	27046.41
223.033	27059.5
223.106	27064.33
223.179	27057.76
223.252	27028.15
223.325	27027.67
223.398	27005.16
223.471	26998.35
223.544	26993.38
223.617	26989.71
223.69	27000.81
223.763	26974.44
223.837	26960.1
223.91	26953.48
223.983	26927.36
224.056	26904.76
224.129	26889.54
224.202	26890.37
224.275	26869.11
224.348	26838.93
224.42	26809.95
224.493	26775.91
224.566	26747.27
224.639	26725.78
224.712	26699.27
224.785	26690.14
224.858	26665.61
224.931	26641.95
225.004	26614.86
225.077	26601.82
225.15	26553.97
225.223	26524.28
225.296	26536.01
225.369	26500.57
225.442	26473
225.514	26454.41
225.587	26447.75
225.66	26428.82
225.733	26410.09
225.806	26382.13
225.879	26362.24
225.952	26335.1
226.025	26324
226.097	26315.02
226.17	26297.83
226.243	26254.72
226.316	26225.9
226.389	26199.78
226.461	26190.94
226.534	26156.67
226.607	26117.62
226.68	26123.27
226.753	26095.75
226.825	26040.22
226.898	26036.51
226.971	26006.24
227.044	25975.35
227.117	25931.95
227.189	25910.81
227.262	25884.55
227.335	25869.68
227.407	25834.93
227.48	25805.1
227.553	25777
227.626	25738.34
227.698	25707.69
227.771	25684.47
227.844	25650.88
227.916	25636.25
227.989	25581.23
228.062	25559.81
228.134	25549.09
228.207	25512.75
228.28	25478.82
228.352	25442.68
228.425	25395.38
228.498	25370.24
228.57	25327.63
228.643	25310.11
228.716	25278.02
228.788	25233.62
228.861	25186.04
228.934	25169.49
229.006	25134.94
229.079	25096.24
229.151	25056.62
229.224	25000.75
229.296	24970.11
229.369	24965.09
229.442	24938.7
229.514	24908.83
229.587	24894.94
229.659	24847.22
229.732	24808.67
229.804	24785.85
229.877	24779.58
229.949	24770.41
230.022	24761.72
230.094	24736.49
230.167	24718.06
230.239	24675.95
230.312	24651.15
230.384	24651.58
230.457	24625.92
230.529	24609.18
230.602	24588.05
230.674	24553.84
230.747	24552.3
230.819	24543.09
230.892	24481
230.964	24442.21
231.037	24413.71
231.109	24372.27
231.181	24351.82
231.254	24327.12
231.326	24285.25
231.399	24241.93
231.471	24194.47
231.544	24134.41
231.616	24117.34
231.688	24074.84
231.761	24035.53
231.833	23996.66
231.905	23925.8
231.978	23882.39
232.05	23828.91
232.122	23791
232.195	23751.02
232.267	23715.96
232.339	23664.2
232.412	23641.35
232.484	23605.32
232.556	23561.58
232.629	23542
232.701	23513.26
232.773	23470.92
232.846	23435.91
232.918	23407.02
232.99	23379.49
233.062	23345.01
233.135	23313.95
233.207	23265.59
233.279	23239.79
233.351	23209.61
233.424	23166.65
233.496	23117.32
233.568	23109.94
233.64	23052.37
233.713	23020.02
233.785	22979.47
233.857	22943.31
233.929	22883.14
234.001	22863.42
234.074	22848.47
234.146	22779.57
234.218	22738.44
234.29	22690.28
234.362	22649.25
234.434	22591.78
234.507	22533.45
234.579	22477.72
234.651	22421.22
234.723	22390.6
234.795	22349
234.867	22307.15
234.939	22288.06
235.012	22255.62
235.084	22216.14
235.156	22194.25
235.228	22137.08
235.3	22093.84
235.372	22049.97
235.444	22030.4
235.516	21963.63
235.588	21917.69
235.66	21884.24
235.732	21828.42
235.804	21854.31
235.876	21822.4
235.948	21796.47
236.02	21749.71
236.092	21707.97
236.164	21677.9
236.236	21624.06
236.308	21583.28
236.38	21537.15
236.452	21485.05
236.524	21438.78
236.596	21409.03
236.668	21365.85
236.74	21330.71
236.812	21286.37
236.884	21247.86
236.956	21198.7
237.028	21147.13
237.1	21098.02
237.172	21079.9
237.244	21057.48
237.316	20968.7
237.388	20906.62
237.46	20848.55
237.532	20827.44
237.604	20781.46
237.675	20742.18
237.747	20709.31
237.819	20659.96
237.891	20622.18
237.963	20568.44
238.035	20514.42
238.107	20431.28
238.178	20401.07
238.25	20349.21
238.322	20327.96
238.394	20269.89
238.466	20225.5
238.538	20190.81
238.609	20149.07
238.681	20080.2
238.753	20024.4
238.825	19990.57
238.897	19960.21
238.968	19944.88
239.04	19899.49
239.112	19891.97
239.184	19842.52
239.255	19797.32
239.327	19757.13
239.399	19708.26
239.471	19683.78
239.542	19657.81
239.614	19643.88
239.686	19571.4
239.758	19552.18
239.829	19497.67
239.901	19473.53
239.973	19437.05
240.044	19403.56
240.116	19369.73
240.188	19325.01
240.259	19280.91
240.331	19221.74
240.403	19187.57
240.474	19121.31
240.546	19060.3
240.618	18992.45
240.689	18951.44
240.761	18910.91
240.833	18888.99
240.904	18851.21
240.976	18803.11
241.048	18758.34
241.119	18720.51
241.191	18700.28
241.262	18679.99
241.334	18634.16
241.405	18593.1
241.477	18542.26
241.549	18500.58
241.62	18459.37
241.692	18428.97
241.763	18398.94
241.835	18365.35
241.906	18327.38
241.978	18279
242.049	18259.14
242.121	18237.12
242.192	18200.01
242.264	18141.65
242.335	18077.85
242.407	18044.69
242.478	18001.37
242.55	17961.18
242.621	17894.72
242.693	17840.79
242.764	17785.95
242.836	17739.4
242.907	17703.93
242.979	17673.76
243.05	17632.99
243.122	17590.63
243.193	17547.84
243.264	17490.49
243.336	17451.84
243.407	17419.21
243.479	17397.67
243.55	17364.27
243.622	17324.03
243.693	17288.18
243.764	17274.3
243.836	17227.98
243.907	17182.44
243.978	17142.87
244.05	17114.44
244.121	17062.29
244.192	17035.35
244.264	16977.32
244.335	16942.53
244.407	16884.16
244.478	16852.21
244.549	16810.18
244.62	16760.54
244.692	16719.43
244.763	16688.73
244.834	16639.86
244.906	16585.49
244.977	16551.03
245.048	16526.99
245.119	16480.52
245.191	16431.65
245.262	16370.64
245.333	16354.63
245.405	16314.2
245.476	16287.21
245.547	16252.12
245.618	16232.21
245.689	16204.69
245.761	16178.91
245.832	16139.14
245.903	16117.16
245.974	16081.16
246.045	16036.82
246.117	16021.2
246.188	15976.13
246.259	15927.79
246.33	15888.94
246.401	15859.06
246.473	15808.3
246.544	15758.66
246.615	15732.05
246.686	15693.54
246.757	15673.2
246.828	15625.09
246.899	15608.56
246.97	15559.2
247.042	15515.05
247.113	15490.66
247.184	15467.67
247.255	15429.59
247.326	15401.06
247.397	15357.29
247.468	15320.46
247.539	15297.33
247.61	15252.79
247.681	15227.96
247.752	15212.73
247.823	15175.04
247.894	15146.16
247.965	15103.45
248.037	15064.03
248.108	15020.11
248.179	14988.35
248.25	14955.38
248.321	14929.3
248.392	14885.19
248.463	14869.24
248.534	14840.02
248.605	14810.48
248.675	14775.58
248.746	14745.02
248.817	14718.46
248.888	14693.92
248.959	14641.71
249.03	14614.09
249.101	14578.32
249.172	14538.02
249.243	14482.44
249.314	14477.24
249.385	14445.47
249.456	14425.51
249.527	14393.79
249.598	14368.73
249.669	14338.7
249.739	14312.23
249.81	14294.39
249.881	14248.74
249.952	14224.5
250.023	14194.9
250.094	14149.3
250.165	14110.92
250.235	14083.78
250.306	14057.66
250.377	14021.45
250.448	14003.52
250.519	13954.93
250.59	13946.25
250.66	13922.97
250.731	13915.88
250.802	13877.08
250.873	13842.7
250.944	13816
251.014	13787.32
251.085	13783.41
251.156	13766.3
251.227	13750.44
251.297	13726.91
251.368	13719.92
251.439	13705.85
251.51	13688.49
251.58	13653.49
251.651	13618.69
251.722	13599.74
251.792	13555.73
251.863	13526.13
251.934	13527.82
252.005	13525.8
252.075	13492.2
252.146	13479.13
252.217	13461.39
252.287	13449.19
252.358	13429.67
252.429	13419.69
252.499	13392.21
252.57	13369.94
252.641	13348.35
252.711	13317.3
252.782	13279.89
252.852	13281
252.923	13247.69
252.994	13218.09
253.064	13211.92
253.135	13183.38
253.205	13153.45
253.276	13146.7
253.347	13140.63
253.417	13093.53
253.488	13068.99
253.558	13044.16
253.629	13015.43
253.699	13000.88
253.77	12980.44
253.841	12957.06
253.911	12936.23
253.982	12915.89
254.052	12892.46
254.123	12872.79
254.193	12854.81
254.264	12874.82
254.334	12825.69
254.405	12788.48
254.475	12757.29
254.546	12736.85
254.616	12725.19
254.687	12707.35
254.757	12687.1
254.827	12659.29
254.898	12643.67
254.968	12626.27
255.039	12600.67
255.109	12588.62
255.18	12556.08
255.25	12517.76
255.321	12499.83
255.391	12460.01
255.461	12457.27
255.532	12412.68
255.602	12391.42
255.673	12349.96
255.743	12310.82
255.813	12264.55
255.884	12255.34
255.954	12240.06
256.024	12243.68
256.095	12229.55
256.165	12197.79
256.235	12184.34
256.306	12162.5
256.376	12153.63
256.446	12136.91
256.517	12123.84
256.587	12115.75
256.657	12094.44
256.728	12067.93
256.798	12044.79
256.868	12029.85
256.938	11996.54
257.009	11986.66
257.079	11971.48
257.149	11974.42
257.219	11932.58
257.29	11930.99
257.36	11893.3
257.43	11888.43
257.5	11836.28
257.571	11802.2
257.641	11792.8
257.711	11758.05
257.781	11739.2
257.852	11727.83
257.922	11691.68
257.992	11660.44
258.062	11629.55
258.132	11626.66
258.202	11605.84
258.273	11588.1
258.343	11583.62
258.413	11558.99
258.483	11534.17
258.553	11500.48
258.623	11475.99
258.693	11460.42
258.764	11448.38
258.834	11449.87
258.904	11426.16
258.974	11402.4
259.044	11378.88
259.114	11362.78
259.184	11357.96
259.254	11338.97
259.324	11299.02
259.394	11282.06
259.464	11284.71
259.535	11267.79
259.605	11237.04
259.675	11214.49
259.745	11199.4
259.815	11166.44
259.885	11136.61
259.955	11148.13
260.025	11125.58
260.095	11105.53
260.165	11090.4
260.235	11092.18
260.305	11061.58
260.375	11029.24
260.445	11028.95
260.515	11034.3
260.585	11033.39
260.655	11003.94
260.725	11003.27
260.795	10996.71
260.865	11001.44
260.934	10975.8
261.004	10971.36
261.074	10953
261.144	10953.92
261.214	10952.28
261.284	10940.33
261.354	10934.4
261.424	10903.51
261.494	10901.68
261.564	10883.95
261.634	10878.89
261.703	10836.15
261.773	10829.64
261.843	10825.01
261.913	10808.25
