Data from 20250704_urea_0.5M_MAYP1162681_11-04-57-767.txt Node
Date: Fri Jul 04 11:04:57 BST 2025
User: adleo
Spectrometer: MAYP116268
Trigger mode: 0
Integration Time (sec): 1.000000E0
Scans to average: 1
Electric dark correction enabled: true
Nonlinearity correction enabled: true
Boxcar width: 10
XAxis mode: Wavelengths
Number of Pixels in Spectrum: 2068
>>>>>Begin Spectral Data<<<<<
179.565	1232.4
179.642	1291.47
179.718	1340.15
179.795	1380.88
179.871	1413.44
179.948	1431.96
180.024	1451.41
180.101	1476.79
180.177	1491.36
180.254	1513.36
180.33	1535.49
180.407	1593.94
180.483	1690.96
180.56	1783.46
180.636	1869.3
180.712	1858.03
180.789	1870.49
180.865	1881.32
180.942	1892.45
181.018	1902.76
181.095	1915.7
181.171	1920.07
181.248	1919.98
181.324	1933.48
181.4	1939.52
181.477	1951.93
181.553	1964.53
181.63	1985.45
181.706	1999.53
181.782	2006.71
181.859	2005.28
181.935	2011.89
182.011	2004
182.088	2020.97
182.164	2042.38
182.24	2056.5
182.317	2067.87
182.393	2065.78
182.469	2079.09
182.546	2090.75
182.622	2094.65
182.698	2087.89
182.775	2096.59
182.851	2111.01
182.927	2101.26
183.003	2101.59
183.08	2095.83
183.156	2102.59
183.232	2100.59
183.308	2089.79
183.385	2097.73
183.461	2118.19
183.537	2120.52
183.613	2134.83
183.69	2126.6
183.766	2112.47
183.842	2116.99
183.918	2119.8
183.995	2131.69
184.071	2137.35
184.147	2131.83
184.223	2120.37
184.299	2131.7
184.375	2124.28
184.452	2130.13
184.528	2185.33
184.604	2191.66
184.68	2203.36
184.756	2216.25
184.832	2220.73
184.908	2225.62
184.985	2224.44
185.061	2206.55
185.137	2214.45
185.213	2204.79
185.289	2205.84
185.365	2201.08
185.441	2201.56
185.517	2215.5
185.593	2213.46
185.669	2210.65
185.745	2220.88
185.822	2240.9
185.898	2235.09
185.974	2243.51
186.05	2235.57
186.126	2197.35
186.202	2190.12
186.278	2185.27
186.354	2172.23
186.43	2177.99
186.506	2180.75
186.582	2183.98
186.658	2194.64
186.734	2173.99
186.81	2177.08
186.886	2178.99
186.962	2193.54
187.038	2191.59
187.114	2184.88
187.19	2192.02
187.266	2183.6
187.341	2186.12
187.417	2175.61
187.493	2174.47
187.569	2176.8
187.645	2172.71
187.721	2160.48
187.797	2170.66
187.873	2171.23
187.949	2169.47
188.025	2165.28
188.101	2164.66
188.176	2169.89
188.252	2162.71
188.328	2173.27
188.404	2172.46
188.48	2169.94
188.556	2160.42
188.632	2160.61
188.707	2162.66
188.783	2159.9
188.859	2154.05
188.935	2142.2
189.011	2151.24
189.086	2146.53
189.162	2140.11
189.238	2137.54
189.314	2136.73
189.39	2130.6
189.465	2129.17
189.541	2142.35
189.617	2126.08
189.693	2118.66
189.768	2118.61
189.844	2145.93
189.92	2135.33
189.996	2145.6
190.071	2157.26
190.147	2158.12
190.223	2169.25
190.298	2160.16
190.374	2146.13
190.45	2158.88
190.526	2167.2
190.601	2161.26
190.677	2164.49
190.753	2192.48
190.828	2193.67
190.904	2208.56
190.98	2222.6
191.055	2234.21
191.131	2227.31
191.207	2248.67
191.282	2259.71
191.358	2251.91
191.433	2233.63
191.509	2248.51
191.585	2245.28
191.66	2243.37
191.736	2249.75
191.811	2237.71
191.887	2254.18
191.963	2280.16
192.038	2285.06
192.114	2286.63
192.189	2291.81
192.265	2286.35
192.34	2259.5
192.416	2259.5
192.491	2256.36
192.567	2257.21
192.642	2256.64
192.718	2257.21
192.793	2245.03
192.869	2241.8
192.944	2244.46
193.02	2253.22
193.095	2253.98
193.171	2256.74
193.246	2258.69
193.322	2255.6
193.397	2255.83
193.473	2238.84
193.548	2219.28
193.624	2224.47
193.699	2222.19
193.775	2235.13
193.85	2237.56
193.925	2249.21
194.001	2247.88
194.076	2240.89
194.152	2232.7
194.227	2226.42
194.302	2213.29
194.378	2216.62
194.453	2215.67
194.529	2228.14
194.604	2213.34
194.679	2207.11
194.755	2189.51
194.83	2199.08
194.905	2201.03
194.981	2211.73
195.056	2205.17
195.131	2212.07
195.207	2207.93
195.282	2198.13
195.357	2180.57
195.433	2194.93
195.508	2181.9
195.583	2189.17
195.659	2203.31
195.734	2211.54
195.809	2211.83
195.884	2222.72
195.96	2223.34
196.035	2236.38
196.11	2234.43
196.185	2248.94
196.261	2254.41
196.336	2287.53
196.411	2277.54
196.486	2279.53
196.561	2272.4
196.637	2283.91
196.712	2299.95
196.787	2306.9
196.862	2323.46
196.937	2334.12
197.013	2341.26
197.088	2357.53
197.163	2383.72
197.238	2401.87
197.313	2400.11
197.388	2413.39
197.464	2444.34
197.539	2451.15
197.614	2444.77
197.689	2458.77
197.764	2475.06
197.839	2495.58
197.914	2486.67
197.989	2506
198.065	2520.38
198.14	2572.08
198.215	2597.42
198.29	2609.18
198.365	2619.76
198.44	2628.04
198.515	2655.86
198.59	2669.82
198.665	2694.64
198.74	2701.88
198.815	2698.17
198.89	2719.22
198.965	2752.06
199.04	2748.34
199.115	2767.25
199.19	2808.12
199.265	2808.89
199.34	2819.47
199.415	2854.08
199.49	2880.14
199.565	2893.77
199.64	2915.89
199.715	2914.31
199.79	2921.08
199.865	2928.52
199.94	2931.19
200.015	2966.32
200.09	2974.57
200.165	2982.43
200.24	2991.02
200.315	3032.05
200.39	3050.31
200.464	3060.09
200.539	3057.18
200.614	3075.34
200.689	3102.19
200.764	3108.43
200.839	3125.5
200.914	3132.6
200.989	3120.24
201.063	3131.36
201.138	3108.82
201.213	3110.54
201.288	3092.41
201.363	3096.66
201.438	3098.66
201.512	3112.05
201.587	3093.41
201.662	3097.41
201.737	3111.62
201.812	3117.59
201.886	3081.17
201.961	3094.77
202.036	3080.09
202.111	3079.33
202.186	3048.02
202.26	3026.89
202.335	3009.2
202.41	3000.19
202.485	2977.46
202.559	2959.34
202.634	2933.03
202.709	2945.7
202.784	2926.92
202.858	2922.96
202.933	2906.04
203.008	2897.17
203.082	2876.78
203.157	2877.11
203.232	2835.32
203.306	2812.68
203.381	2781.64
203.456	2758.77
203.53	2732.49
203.605	2715.06
203.68	2693.27
203.754	2689.89
203.829	2677.27
203.904	2657.31
203.978	2648.49
204.053	2656.45
204.127	2643.02
204.202	2640.68
204.277	2623.2
204.351	2617.2
204.426	2611.67
204.5	2601.77
204.575	2567.77
204.65	2577.87
204.724	2568.96
204.799	2571.96
204.873	2567.91
204.948	2568.15
205.022	2556.91
205.097	2546.43
205.171	2556.52
205.246	2562.05
205.32	2561.19
205.395	2561.9
205.469	2551.53
205.544	2557.91
205.618	2538.53
205.693	2550.58
205.767	2538.34
205.842	2559.87
205.916	2551.92
205.991	2543.2
206.065	2551.58
206.14	2569.29
206.214	2564.24
206.289	2560.28
206.363	2576.52
206.438	2581.43
206.512	2588.1
206.586	2611.86
206.661	2621.92
206.735	2604.64
206.81	2607.07
206.884	2623.02
206.958	2611.79
207.033	2633.02
207.107	2646.61
207.181	2682.87
207.256	2684.06
207.33	2710.35
207.405	2725.95
207.479	2750.38
207.553	2764.96
207.628	2756.96
207.702	2777.11
207.776	2782.21
207.851	2795.46
207.925	2822.3
207.999	2829.64
208.073	2840.7
208.148	2858.06
208.222	2865.54
208.296	2921.92
208.371	2958.7
208.445	2995.47
208.519	3048.57
208.593	3087.25
208.668	3109.82
208.742	3145.81
208.816	3178.86
208.89	3228.69
208.965	3268.28
209.039	3317.01
209.113	3376.05
209.187	3446.75
209.261	3490.7
209.336	3564.61
209.41	3640.8
209.484	3702.68
209.558	3789.53
209.632	3870.08
209.707	3951.9
209.781	4049.41
209.855	4138.36
209.929	4236.13
210.003	4322.8
210.077	4414.6
210.151	4553.13
210.226	4679.8
210.3	4799.32
210.374	4924.29
210.448	5034.46
210.522	5158.08
210.596	5283.61
210.67	5415.41
210.744	5581.2
210.818	5740.48
210.892	5887.34
210.966	6013.72
211.041	6168.37
211.115	6305.95
211.189	6476.88
211.263	6639.45
211.337	6791.67
211.411	6960.39
211.485	7113.35
211.559	7281.3
211.633	7440.09
211.707	7572.47
211.781	7755.19
211.855	7893.35
211.929	8055.76
212.003	8210.95
212.077	8398.51
212.151	8592.19
212.225	8776.75
212.299	8946.59
212.373	9122.33
212.447	9300.62
212.52	9519.11
212.594	9700.81
212.668	9902.63
212.742	10077.63
212.816	10262.36
212.89	10450.17
212.964	10634.99
213.038	10829.08
213.112	11041.81
213.186	11259.7
213.26	11434.95
213.333	11577.07
213.407	11782.32
213.481	11980.44
213.555	12189.64
213.629	12365.72
213.703	12542.38
213.777	12737.36
213.85	12910.45
213.924	13131.99
213.998	13331.31
214.072	13510.83
214.146	13690.24
214.219	13879.74
214.293	14056.02
214.367	14233.94
214.441	14421.5
214.515	14592.58
214.588	14743.36
214.662	14880.6
214.736	15027.71
214.81	15208.86
214.883	15396.42
214.957	15552.3
215.031	15709.92
215.105	15849.75
215.178	16000.38
215.252	16164.54
215.326	16306.72
215.4	16447.32
215.473	16561.83
215.547	16691.62
215.621	16831.05
215.694	16994.24
215.768	17109.95
215.842	17244.65
215.915	17379.36
215.989	17503.16
216.063	17638.68
216.136	17784.51
216.21	17925.67
216.284	18069.81
216.357	18202.19
216.431	18327.87
216.504	18461.65
216.578	18608.83
216.652	18739.81
216.725	18861.97
216.799	18980.86
216.873	19091.36
216.946	19215.02
217.02	19315.01
217.093	19423.83
217.167	19507.48
217.24	19599.96
217.314	19699.48
217.387	19792.63
217.461	19887.18
217.535	19996.67
217.608	20079.99
217.682	20171.32
217.755	20266.54
217.829	20349.72
217.902	20433.44
217.976	20517.58
218.049	20594.59
218.123	20674.17
218.196	20759.81
218.27	20845.5
218.343	20904.05
218.417	20980.01
218.49	21057.41
218.563	21150.1
218.637	21232.08
218.71	21334.75
218.784	21404.01
218.857	21490.57
218.931	21567.3
219.004	21633.67
219.077	21697.69
219.151	21763.14
219.224	21823.83
219.298	21881.33
219.371	21950.27
219.444	22000.83
219.518	22048.79
219.591	22105.58
219.665	22180.06
219.738	22240.99
219.811	22271.36
219.885	22342.85
219.958	22403.26
220.031	22431.51
220.105	22474.46
220.178	22512.45
220.251	22537.57
220.325	22584
220.398	22627.68
220.471	22670.87
220.544	22720.39
220.618	22747.72
220.691	22790.54
220.764	22820.62
220.838	22864.88
220.911	22897.86
220.984	22960.64
221.057	23007.36
221.131	23037.64
221.204	23028.28
221.277	23061.79
221.35	23125.49
221.424	23141.11
221.497	23161.32
221.57	23193.81
221.643	23229.64
221.716	23257.61
221.79	23274.63
221.863	23281.28
221.936	23297.82
222.009	23311.03
222.082	23322.37
222.155	23344.64
222.229	23374.25
222.302	23396.82
222.375	23400.34
222.448	23405.64
222.521	23398.07
222.594	23397.83
222.667	23400.63
222.74	23415.24
222.814	23424.5
222.887	23419.63
222.96	23429.17
223.033	23446.01
223.106	23450.54
223.179	23455.6
223.252	23460.18
223.325	23469.83
223.398	23480.15
223.471	23476.1
223.544	23479.66
223.617	23477.45
223.69	23478.65
223.763	23460.86
223.837	23459.12
223.91	23461.87
223.983	23449.72
224.056	23441.38
224.129	23439.01
224.202	23446.97
224.275	23437.76
224.348	23417.36
224.42	23393.01
224.493	23371.21
224.566	23353.61
224.639	23358.14
224.712	23331.77
224.785	23313.1
224.858	23294.78
224.931	23271.15
225.004	23251.38
225.077	23237.21
225.15	23211.26
225.223	23186.58
225.296	23206.78
225.369	23179.68
225.442	23156.35
225.514	23143.13
225.587	23122.35
225.66	23108.56
225.733	23088.84
225.806	23079.92
225.879	23059.38
225.952	23039.9
226.025	23028.52
226.097	23017.72
226.17	22985.56
226.243	22942.12
226.316	22917.72
226.389	22899.21
226.461	22894.53
226.534	22880.16
226.607	22850.03
226.68	22845.69
226.753	22826.79
226.825	22762.42
226.898	22753.5
226.971	22730.31
227.044	22707.51
227.117	22691.65
227.189	22681.66
227.262	22665.13
227.335	22660.93
227.407	22636.83
227.48	22620.53
227.553	22604.48
227.626	22575.89
227.698	22561.18
227.771	22553.86
227.844	22523.44
227.916	22500.01
227.989	22450.01
228.062	22415.5
228.134	22413.13
228.207	22374.81
228.28	22349.64
228.352	22330.36
228.425	22299.65
228.498	22288.85
228.57	22260.65
228.643	22248.65
228.716	22209.65
228.788	22181.45
228.861	22135.22
228.934	22132.47
229.006	22102.97
229.079	22072.5
229.151	22044.2
229.224	21996.96
229.296	21976.28
229.369	21979.22
229.442	21970.11
229.514	21940.81
229.587	21928.42
229.659	21887.4
229.732	21874.58
229.804	21867.15
229.877	21875.06
229.949	21863.78
230.022	21860.07
230.094	21834.28
230.167	21809.21
230.239	21770.94
230.312	21745.16
230.384	21740.38
230.457	21704.86
230.529	21676.95
230.602	21657.48
230.674	21633.52
230.747	21621.33
230.819	21608.65
230.892	21553.85
230.964	21525.89
231.037	21505.5
231.109	21475.09
231.181	21463.33
231.254	21429.4
231.326	21384.14
231.399	21335.46
231.471	21304.03
231.544	21249.85
231.616	21224.21
231.688	21194.52
231.761	21174.23
231.833	21134.81
231.905	21075.62
231.978	21045.3
232.05	21016.87
232.122	20974.21
232.195	20935.75
232.267	20923.66
232.339	20882.02
232.412	20872.09
232.484	20829.24
232.556	20805.39
232.629	20803.12
232.701	20780.66
232.773	20753.82
232.846	20729.33
232.918	20696.22
232.99	20665.57
233.062	20639.74
233.135	20617.91
233.207	20572.46
233.279	20547.02
233.351	20523.69
233.424	20495.79
233.496	20464.22
233.568	20454.49
233.64	20415.16
233.713	20381.72
233.785	20340.51
233.857	20314.97
233.929	20262.01
234.001	20247.6
234.074	20224.75
234.146	20164.61
234.218	20123.65
234.29	20093.72
234.362	20048.08
234.434	19998.83
234.507	19952.66
234.579	19910.45
234.651	19871.85
234.723	19851.27
234.795	19825.68
234.867	19787.71
234.939	19770.98
235.012	19740.82
235.084	19705.59
235.156	19688.14
235.228	19652.29
235.3	19618.08
235.372	19584.15
235.444	19559.28
235.516	19506.85
235.588	19475.1
235.66	19446.9
235.732	19401.99
235.804	19420.35
235.876	19397.03
235.948	19390.04
236.02	19358.14
236.092	19312.31
236.164	19271.4
236.236	19230.77
236.308	19186.15
236.38	19162.1
236.452	19114.59
236.524	19071.12
236.596	19044.66
236.668	19011.8
236.74	18974.93
236.812	18942.12
236.884	18914.55
236.956	18885.06
237.028	18841.35
237.1	18799.38
237.172	18775.72
237.244	18757.12
237.316	18680.45
237.388	18651.77
237.46	18604.98
237.532	18579.1
237.604	18550.62
237.675	18549.95
237.747	18524.65
237.819	18476.84
237.891	18441.13
237.963	18399.93
238.035	18367.98
238.107	18301.57
238.178	18276.95
238.25	18243.5
238.322	18232.85
238.394	18180.04
238.466	18142.59
238.538	18112.52
238.609	18077.73
238.681	18025.58
238.753	17985.2
238.825	17958.65
238.897	17915.95
238.968	17898.75
239.04	17857.93
239.112	17845.88
239.184	17786.61
239.255	17742.65
239.327	17723.57
239.399	17686.41
239.471	17666.85
239.542	17633.74
239.614	17625.07
239.686	17571.81
239.758	17544.92
239.829	17494.42
239.901	17472.44
239.973	17434.66
240.044	17418.47
240.116	17384.49
240.188	17349.55
240.259	17311.96
240.331	17263.57
240.403	17231.52
240.474	17175.81
240.546	17142.12
240.618	17092.87
240.689	17047.09
240.761	17014.55
240.833	16994.7
240.904	16953.64
240.976	16915.47
241.048	16889.25
241.119	16847.37
241.191	16822.11
241.262	16814.26
241.334	16782.11
241.405	16743.22
241.477	16704.47
241.549	16657.67
241.62	16632.22
241.692	16609.19
241.763	16589.96
241.835	16556.27
241.906	16527.83
241.978	16482.57
242.049	16454.28
242.121	16423.34
242.192	16415.24
242.264	16372.15
242.335	16310.27
242.407	16288.53
242.478	16248.77
242.55	16212.86
242.621	16170.73
242.693	16128.71
242.764	16089.47
242.836	16046.87
242.907	16031.06
242.979	16009.7
243.05	15986.09
243.122	15955.24
243.193	15925.26
243.264	15871.23
243.336	15835.51
243.407	15809.97
243.479	15797.82
243.55	15765.09
243.622	15745.19
243.693	15703.78
243.764	15682.24
243.836	15651.1
243.907	15616.73
243.978	15583.86
244.05	15562.51
244.121	15519.32
244.192	15501.77
244.264	15446.73
244.335	15419.25
244.407	15367.44
244.478	15340.35
244.549	15303.42
244.62	15252.04
244.692	15213.33
244.763	15192.75
244.834	15159.06
244.906	15121.36
244.977	15099.38
245.048	15088.68
245.119	15042.31
245.191	15002.98
245.262	14954.53
245.333	14944.46
245.405	14914.52
245.476	14889.26
245.547	14852.73
245.618	14836.72
245.689	14796.76
245.761	14779.31
245.832	14752.32
245.903	14733.42
245.974	14709.18
246.045	14677.7
246.117	14674.18
246.188	14628.72
246.259	14585.58
246.33	14556.99
246.401	14519.73
246.473	14470.51
246.544	14435.28
246.615	14417.92
246.686	14389.67
246.757	14381.48
246.828	14340.55
246.899	14326.19
246.97	14287.04
247.042	14252.05
247.113	14227.03
247.184	14223.89
247.255	14181.04
247.326	14153.61
247.397	14121.7
247.468	14090.51
247.539	14072.14
247.61	14031.31
247.681	14019.26
247.752	14011.4
247.823	13978.28
247.894	13959
247.965	13923.72
248.037	13873.82
248.108	13834.1
248.179	13808.02
248.25	13776.59
248.321	13757.11
248.392	13718.74
248.463	13711.51
248.534	13693.14
248.605	13676.95
248.675	13643.11
248.746	13625.99
248.817	13607.19
248.888	13581.55
248.959	13542.55
249.03	13511.74
249.101	13480.79
249.172	13451.58
249.243	13402.8
249.314	13398.55
249.385	13374.88
249.456	13360.86
249.527	13343.31
249.598	13319.5
249.669	13289.8
249.739	13277.12
249.81	13250.85
249.881	13210.69
249.952	13191.41
250.023	13155.93
250.094	13120.16
250.165	13086.03
250.235	13060.05
250.306	13041.87
250.377	13011.22
250.448	12989.91
250.519	12947.25
250.59	12947.82
250.66	12921.79
250.731	12920.15
250.802	12885.21
250.873	12858.5
250.944	12837.82
251.014	12814.54
251.085	12814.73
251.156	12798.34
251.227	12781.71
251.297	12781.95
251.368	12779.3
251.439	12759.53
251.51	12752.3
251.58	12724.54
251.651	12700.96
251.722	12695.61
251.792	12649.09
251.863	12622.58
251.934	12621.71
252.005	12629.19
252.075	12599.78
252.146	12590
252.217	12581.56
252.287	12578.91
252.358	12562.62
252.429	12567.1
252.499	12541.07
252.57	12528.97
252.641	12523.91
252.711	12505.01
252.782	12461.48
252.852	12455.99
252.923	12436.42
252.994	12416.85
253.064	12408.7
253.135	12382.91
253.205	12359.48
253.276	12359.48
253.347	12363.39
253.417	12332.3
253.488	12312.73
253.558	12287.8
253.629	12265.82
253.699	12243.36
253.77	12220.46
253.841	12198.15
253.911	12167.25
253.982	12150.19
254.052	12135.19
254.123	12115.48
254.193	12090.75
254.264	12114.85
254.334	12083.09
254.405	12049.2
254.475	12021
254.546	11996.71
254.616	11993.43
254.687	11970.15
254.757	11951.21
254.827	11931.35
254.898	11914.67
254.968	11889.99
255.039	11866.52
255.109	11856.01
255.18	11826.42
255.25	11792.68
255.321	11781.11
255.391	11750.07
255.461	11754.51
255.532	11704.86
255.602	11681.15
255.673	11644.18
255.743	11610.34
255.813	11571.16
255.884	11569.04
255.954	11555.93
256.024	11554.53
256.095	11537.42
256.165	11508.31
256.235	11503.87
256.306	11470.52
256.376	11470.96
256.446	11460.21
256.517	11449.56
256.587	11446.71
256.657	11431.1
256.728	11417.8
256.798	11400.54
256.868	11391.29
256.938	11366.23
257.009	11362.47
257.079	11357.89
257.149	11365.7
257.219	11327.48
257.29	11319.48
257.36	11285.41
257.43	11281.89
257.5	11238.71
257.571	11216.54
257.641	11204.2
257.711	11167.62
257.781	11159.19
257.852	11144.3
257.922	11113.98
257.992	11099.96
258.062	11074.51
258.132	11065.12
258.202	11042.71
258.273	11022.61
258.343	11015.91
258.413	10998.28
258.483	10980.4
258.553	10952.06
258.623	10933.75
258.693	10926.18
258.764	10926.62
258.834	10919.2
258.904	10901.32
258.974	10877.9
259.044	10860.17
259.114	10852.02
259.184	10838.77
259.254	10827.93
259.324	10784.51
259.394	10775.41
259.464	10771.55
259.535	10754.88
259.605	10740.61
259.675	10716.28
259.745	10711.03
259.815	10684.53
259.885	10654.7
259.955	10664.78
260.025	10638.61
260.095	10612.4
260.165	10602.57
260.235	10597.9
260.305	10577.76
260.375	10553.04
260.445	10567.83
260.515	10568.55
260.585	10568.99
260.655	10554.87
260.725	10548.17
260.795	10545.57
260.865	10550
260.934	10527.93
261.004	10521.28
261.074	10510.39
261.144	10524.7
261.214	10518.34
261.284	10501.19
261.354	10498.45
261.424	10472.23
261.494	10479.46
261.564	10471.65
261.634	10455.85
261.703	10425.59
261.773	10416.87
261.843	10411.86
261.913	10393.7
261.983	10356.75
