Data from 20250704_urea_2M_MAYP1162681_11-59-39-534.txt Node
Date: Fri Jul 04 11:59:39 BST 2025
User: adleo
Spectrometer: MAYP116268
Trigger mode: 0
Integration Time (sec): 1.000000E0
Scans to average: 1
Electric dark correction enabled: true
Nonlinearity correction enabled: true
Boxcar width: 10
XAxis mode: Wavelengths
Number of Pixels in Spectrum: 2068
>>>>>Begin Spectral Data<<<<<
179.565	1277.72
179.642	1334.23
179.718	1382.9
179.795	1422.19
179.871	1456.5
179.948	1474.68
180.024	1498.81
180.101	1521.66
180.177	1537.42
180.254	1559.99
180.33	1583.31
180.407	1641.2
180.483	1742.44
180.56	1837.61
180.636	1927.92
180.712	1913.36
180.789	1925.25
180.865	1935.14
180.942	1943.74
181.018	1952.82
181.095	1965.66
181.171	1968.94
181.248	1974.84
181.324	1989.83
181.4	1998.29
181.477	2009.28
181.553	2025.3
181.63	2046.13
181.706	2062.02
181.782	2068.96
181.859	2070.62
181.935	2077
182.011	2073.19
182.088	2091.74
182.164	2112.02
182.24	2126.47
182.317	2136.22
182.393	2134.65
182.469	2150.63
182.546	2164.72
182.622	2170.57
182.698	2163.57
182.775	2178.56
182.851	2191.4
182.927	2182.65
183.003	2178.61
183.08	2174.99
183.156	2180.22
183.232	2175.09
183.308	2163.1
183.385	2172.47
183.461	2187.5
183.537	2189.12
183.613	2203.96
183.69	2192.97
183.766	2181.5
183.842	2187.12
183.918	2198.2
183.995	2211.43
184.071	2215.09
184.147	2209.81
184.223	2197.35
184.299	2212.34
184.375	2200.21
184.452	2201.73
184.528	2249.55
184.604	2259.68
184.68	2271.15
184.756	2282.19
184.832	2286.9
184.908	2293.51
184.985	2294.7
185.061	2280.15
185.137	2286.86
185.213	2274.01
185.289	2276.39
185.365	2266.78
185.441	2263.59
185.517	2271.4
185.593	2270.3
185.669	2270.78
185.745	2279.11
185.822	2297.56
185.898	2287.9
185.974	2298.22
186.05	2293.47
186.126	2264.35
186.202	2257.59
186.278	2252.26
186.354	2240.65
186.43	2249.7
186.506	2246.03
186.582	2244.7
186.658	2250.41
186.734	2228.57
186.81	2231
186.886	2232.43
186.962	2245.22
187.038	2244.84
187.114	2235.51
187.19	2240.46
187.266	2226.62
187.341	2229
187.417	2221.34
187.493	2219.34
187.569	2220.15
187.645	2215.82
187.721	2204.73
187.797	2212.58
187.873	2215.96
187.949	2214.01
188.025	2205.77
188.101	2210.15
188.176	2216.19
188.252	2213.86
188.328	2223.56
188.404	2226.27
188.48	2221.27
188.556	2217.37
188.632	2215.56
188.707	2219.23
188.783	2215.9
188.859	2208
188.935	2197.44
189.011	2206.91
189.086	2202.82
189.162	2195.97
189.238	2192.02
189.314	2185.69
189.39	2180.41
189.465	2177.03
189.541	2191.97
189.617	2175.13
189.693	2169.62
189.768	2168.66
189.844	2194.42
189.92	2185.81
189.996	2193.61
190.071	2206.79
190.147	2206.41
190.223	2216.31
190.298	2211.12
190.374	2198.66
190.45	2215.54
190.526	2224.58
190.601	2216.4
190.677	2219.11
190.753	2246.72
190.828	2250.96
190.904	2267.95
190.98	2282.42
191.055	2291.46
191.131	2280.8
191.207	2302.54
191.282	2313.82
191.358	2308.01
191.433	2291.35
191.509	2305.28
191.585	2300.95
191.66	2298.76
191.736	2305.8
191.811	2295.29
191.887	2307.52
191.963	2331.65
192.038	2339.98
192.114	2337.89
192.189	2342.5
192.265	2338.08
192.34	2313.61
192.416	2311.94
192.491	2303.61
192.567	2306.42
192.642	2306.66
192.718	2307.42
192.793	2293.52
192.869	2289.62
192.944	2291.43
193.02	2301.38
193.095	2307.28
193.171	2313.47
193.246	2315.42
193.322	2311.47
193.397	2312.51
193.473	2298.14
193.548	2278.86
193.624	2279.72
193.699	2279.57
193.775	2297.43
193.85	2300.9
193.925	2312.32
194.001	2312.8
194.076	2309.47
194.152	2300.23
194.227	2293.85
194.302	2285.43
194.378	2291.09
194.453	2287.95
194.529	2302.61
194.604	2285.86
194.679	2278.44
194.755	2259.26
194.83	2270.41
194.905	2270.74
194.981	2281.21
195.056	2273.31
195.131	2280.97
195.207	2279.59
195.282	2271.93
195.357	2253.65
195.433	2267.97
195.508	2255.12
195.583	2261.5
195.659	2274.78
195.734	2281.26
195.809	2281.4
195.884	2290.1
195.96	2290.39
196.035	2309.28
196.11	2303.14
196.185	2314.99
196.261	2319.42
196.336	2352.59
196.411	2340.4
196.486	2345.3
196.561	2338.26
196.637	2349.63
196.712	2366.96
196.787	2371.39
196.862	2387.48
196.937	2396.05
197.013	2401.85
197.088	2412.04
197.163	2436.28
197.238	2455.53
197.313	2455.81
197.388	2470.29
197.464	2497.81
197.539	2510.19
197.614	2497.29
197.689	2510
197.764	2528.05
197.839	2549.53
197.914	2543.53
197.989	2564.63
198.065	2578.82
198.14	2630.29
198.215	2657.29
198.29	2668.11
198.365	2680.83
198.44	2689.07
198.515	2719.04
198.59	2735.38
198.665	2764.82
198.74	2773.5
198.815	2771.59
198.89	2793.12
198.965	2822.82
199.04	2822.15
199.115	2837.83
199.19	2889.34
199.265	2891.67
199.34	2901.68
199.415	2933.97
199.49	2953.93
199.565	2964.75
199.64	2988.06
199.715	2986.63
199.79	2991.68
199.865	2997.64
199.94	2998.17
200.015	3032.26
200.09	3036.12
200.165	3040.99
200.24	3047.47
200.315	3084.41
200.39	3101.91
200.464	3110.4
200.539	3112.64
200.614	3131.81
200.689	3154.94
200.764	3159.33
200.839	3178.63
200.914	3184.21
200.989	3176.91
201.063	3190.36
201.138	3172.82
201.213	3176.97
201.288	3153.7
201.363	3163.62
201.438	3164.24
201.512	3178.92
201.587	3158.84
201.662	3163.56
201.737	3177.49
201.812	3186.08
201.886	3154.24
201.961	3167.7
202.036	3156.69
202.111	3150.58
202.186	3117.93
202.26	3100.71
202.335	3076.29
202.41	3070
202.485	3051.93
202.559	3032.24
202.634	3005.87
202.709	3015.11
202.784	2994.66
202.858	2997.42
202.933	2976.16
203.008	2968.87
203.082	2951.85
203.157	2954.95
203.232	2911.3
203.306	2889.89
203.381	2855.28
203.456	2830.97
203.53	2799.96
203.605	2778
203.68	2756.65
203.754	2751.27
203.829	2736.21
203.904	2715.15
203.978	2703.95
204.053	2707.67
204.127	2689.38
204.202	2689.71
204.277	2671.75
204.351	2664.46
204.426	2657.12
204.5	2647.69
204.575	2613.12
204.65	2618.36
204.724	2609.49
204.799	2617.39
204.873	2614.82
204.948	2615.39
205.022	2603.39
205.097	2598.2
205.171	2612.68
205.246	2620.16
205.32	2618.25
205.395	2618.44
205.469	2607.92
205.544	2613.69
205.618	2597.07
205.693	2614.02
205.767	2601.69
205.842	2622.46
205.916	2614.36
205.991	2601.64
206.065	2608.6
206.14	2623.54
206.214	2621.45
206.289	2609.92
206.363	2622.35
206.438	2624.59
206.512	2632.97
206.586	2652.93
206.661	2659.84
206.735	2636.41
206.81	2638.18
206.884	2656.51
206.958	2643.13
207.033	2662.89
207.107	2670.99
207.181	2703.35
207.256	2696.2
207.33	2714.21
207.405	2729.66
207.479	2749.29
207.553	2761.86
207.628	2745.77
207.702	2757.34
207.776	2753.44
207.851	2757.72
207.925	2771.74
207.999	2766.88
208.073	2765.3
208.148	2769.83
208.222	2758.87
208.296	2793.83
208.371	2808.04
208.445	2816.05
208.519	2845.06
208.593	2859.97
208.668	2857.69
208.742	2863.41
208.816	2865.27
208.89	2880.72
208.965	2880
209.039	2887.53
209.113	2904.41
209.187	2926.17
209.261	2922.7
209.336	2942.29
209.41	2964.26
209.484	2966.6
209.558	2991.06
209.632	3000.02
209.707	3011.41
209.781	3034.06
209.855	3051.51
209.929	3070.6
210.003	3081.14
210.077	3082.43
210.151	3132.98
210.226	3167.53
210.3	3192.02
210.374	3215.86
210.448	3222.15
210.522	3233.89
210.596	3247.96
210.67	3257.07
210.744	3310.04
210.818	3344.52
210.892	3365.85
210.966	3366.18
211.041	3386.51
211.115	3383.79
211.189	3416.52
211.263	3438.33
211.337	3446.82
211.411	3463.48
211.485	3461.57
211.559	3476.84
211.633	3487.86
211.707	3462.4
211.781	3475.01
211.855	3445.8
211.929	3445.75
212.003	3435.64
212.077	3454.36
212.151	3474.84
212.225	3497.76
212.299	3497.85
212.373	3502.1
212.447	3514.14
212.52	3557.88
212.594	3575.4
212.668	3607.82
212.742	3615.27
212.816	3627.69
212.89	3646.64
212.964	3674.93
213.038	3710
213.112	3754.11
213.186	3801.88
213.26	3815.68
213.333	3804.98
213.407	3855.22
213.481	3904.17
213.555	3959.18
213.629	3995.86
213.703	4032.1
213.777	4081.69
213.85	4119.14
213.924	4215.3
213.998	4281.52
214.072	4342.69
214.146	4397.71
214.219	4466.56
214.293	4532.06
214.367	4611.93
214.441	4703.97
214.515	4770.48
214.588	4832.93
214.662	4882.49
214.736	4949.1
214.81	5047.52
214.883	5156.87
214.957	5241.66
215.031	5330.28
215.105	5410.12
215.178	5501.26
215.252	5608.85
215.326	5695.31
215.4	5786.21
215.473	5850.61
215.547	5948.95
215.621	6050.58
215.694	6181.58
215.768	6283.43
215.842	6400.6
215.915	6514.94
215.989	6618.87
216.063	6743.53
216.136	6880.98
216.21	7020.38
216.284	7170.4
216.357	7312.13
216.431	7450.03
216.504	7597.66
216.578	7762.73
216.652	7921.71
216.725	8063.97
216.799	8220.49
216.873	8370.19
216.946	8529.85
217.02	8670.14
217.093	8812.99
217.167	8942.27
217.24	9072.93
217.314	9219.31
217.387	9364.75
217.461	9507.71
217.535	9669.98
217.608	9810.42
217.682	9954.48
217.755	10116.04
217.829	10256.95
217.902	10406.19
217.976	10559.98
218.049	10697.96
218.123	10825.13
218.196	10982.5
218.27	11124.99
218.343	11250.63
218.417	11400.6
218.49	11543.3
218.563	11710
218.637	11861.68
218.71	12032.59
218.784	12188.57
218.857	12350.62
218.931	12498.45
219.004	12655.15
219.077	12806.08
219.151	12949.39
219.224	13088.6
219.298	13219.72
219.371	13369.93
219.444	13484.85
219.518	13615.34
219.591	13753.21
219.665	13920.38
219.738	14045.47
219.811	14167.92
219.885	14304.05
219.958	14433.81
220.031	14557.03
220.105	14677.34
220.178	14802.58
220.251	14905.3
220.325	15021.32
220.398	15138.26
220.471	15247.54
220.544	15355.41
220.618	15455.29
220.691	15568.56
220.764	15679.66
220.838	15794.09
220.911	15883.4
220.984	16012.1
221.057	16115.58
221.131	16220.41
221.204	16282.01
221.277	16398.21
221.35	16526.37
221.424	16616.79
221.497	16712.02
221.57	16803.98
221.643	16908.27
221.716	16996.18
221.79	17087.94
221.863	17170.16
221.936	17244.86
222.009	17334.12
222.082	17421.93
222.155	17498.75
222.229	17592
222.302	17665.2
222.375	17724.1
222.448	17803.76
222.521	17871.95
222.594	17939.13
222.667	18001.25
222.74	18080.38
222.814	18135.41
222.887	18187.51
222.96	18245.77
223.033	18312.75
223.106	18379.16
223.179	18428.51
223.252	18477.27
223.325	18529.42
223.398	18582.72
223.471	18632.59
223.544	18686.66
223.617	18738.51
223.69	18783.91
223.763	18813.06
223.837	18865.73
223.91	18933.73
223.983	18962.84
224.056	18984.91
224.129	19025.87
224.202	19072.37
224.275	19108.42
224.348	19137.43
224.42	19158.44
224.493	19182.87
224.566	19215.88
224.639	19245.08
224.712	19272.17
224.785	19302.67
224.858	19330.43
224.931	19347.05
225.004	19362.09
225.077	19384.93
225.15	19373.8
225.223	19397.27
225.296	19444.3
225.369	19444.21
225.442	19449.7
225.514	19480.01
225.587	19518.66
225.66	19542.51
225.733	19559.33
225.806	19572.34
225.879	19577.69
225.952	19589.45
226.025	19625.45
226.097	19648.82
226.17	19657.78
226.243	19648.19
226.316	19658.6
226.389	19657.83
226.461	19679.08
226.534	19700.72
226.607	19705.54
226.68	19742.7
226.753	19756.91
226.825	19742.98
226.898	19770.65
226.971	19774.98
227.044	19784.24
227.117	19785.2
227.189	19791.13
227.262	19798.6
227.335	19809.01
227.407	19815.41
227.48	19822.69
227.553	19824.91
227.626	19819.75
227.698	19823.41
227.771	19837.05
227.844	19828.52
227.916	19841.68
227.989	19834.93
228.062	19828.72
228.134	19853.73
228.207	19853.53
228.28	19842.74
228.352	19843.61
228.425	19841.44
228.498	19853.24
228.57	19836.33
228.643	19851.08
228.716	19847.75
228.788	19842.79
228.861	19834.02
228.934	19851.17
229.006	19850.98
229.079	19842.26
229.151	19832.09
229.224	19818.98
229.296	19826.31
229.369	19858.35
229.442	19872.95
229.514	19857
229.587	19867.17
229.659	19837.92
229.732	19833.73
229.804	19841.63
229.877	19850.06
229.949	19856.62
230.022	19871.51
230.094	19875.22
230.167	19873.49
230.239	19860.38
230.312	19858.55
230.384	19875.94
230.457	19868.62
230.529	19858.74
230.602	19857.15
230.674	19848.38
230.747	19856.91
230.819	19852.28
230.892	19806.26
230.964	19789.54
231.037	19786.45
231.109	19773.68
231.181	19778.26
231.254	19759.03
231.326	19746.89
231.399	19737.78
231.471	19716.72
231.544	19676.82
231.616	19679.66
231.688	19669.35
231.761	19650.36
231.833	19631.04
231.905	19598.17
231.978	19590.51
232.05	19579.04
232.122	19563.48
232.195	19549.93
232.267	19552.68
232.339	19540.3
232.412	19548.15
232.484	19530.95
232.556	19522.95
232.629	19528.34
232.701	19521.98
232.773	19513.41
232.846	19495.86
232.918	19478.18
232.99	19464.73
233.062	19468.01
233.135	19449.65
233.207	19412.98
233.279	19412.69
233.351	19404.5
233.424	19383.15
233.496	19352.02
233.568	19363.87
233.64	19335.25
233.713	19313.08
233.785	19285.71
233.857	19266.63
233.929	19231.4
234.001	19233.52
234.074	19230.68
234.146	19194.82
234.218	19166.63
234.29	19141.62
234.362	19111.17
234.434	19074.73
234.507	19046.49
234.579	19003.41
234.651	18982.02
234.723	18979.03
234.795	18954.69
234.867	18930.26
234.939	18926.7
235.012	18908.24
235.084	18883.81
235.156	18878.36
235.228	18852.58
235.3	18823.67
235.372	18810.03
235.444	18797.59
235.516	18748.97
235.588	18726.27
235.66	18703.43
235.732	18676.45
235.804	18716.06
235.876	18705.17
235.948	18702.95
236.02	18681.12
236.092	18656.88
236.164	18624.01
236.236	18588.79
236.308	18564.64
236.38	18546.77
236.452	18514.58
236.524	18494.19
236.596	18492.02
236.668	18473.13
236.74	18461.37
236.812	18448.65
236.884	18422.92
236.956	18409.42
237.028	18387.26
237.1	18350.68
237.172	18346.05
237.244	18340.7
237.316	18270.59
237.388	18243.51
237.46	18202.69
237.532	18188.47
237.604	18158.59
237.675	18154.45
237.747	18140.47
237.819	18109.53
237.891	18081.78
237.963	18051.85
238.035	18020.24
238.107	17949.25
238.178	17935.03
238.25	17903.95
238.322	17897.35
238.394	17852.24
238.466	17820.72
238.538	17807.76
238.609	17794.07
238.681	17743.91
238.753	17708.05
238.825	17686.7
238.897	17665.21
238.968	17673.45
239.04	17643.72
239.112	17650.51
239.184	17613.89
239.255	17575.43
239.327	17553.36
239.399	17537.98
239.471	17521.98
239.542	17505.45
239.614	17492.59
239.686	17439.43
239.758	17432.54
239.829	17391.81
239.901	17376.78
239.973	17351.24
240.044	17320.3
240.116	17291.52
240.188	17269.11
240.259	17235.91
240.331	17209.5
240.403	17189.02
240.474	17138.61
240.546	17095.86
240.618	17043.91
240.689	17010.65
240.761	16988
240.833	16979.81
240.904	16944.43
240.976	16908.58
241.048	16879.95
241.119	16863.13
241.191	16845.05
241.262	16820.57
241.334	16777.58
241.405	16755.99
241.477	16718.64
241.549	16686.64
241.62	16655.5
241.692	16627.07
241.763	16616.27
241.835	16579.93
241.906	16550.1
241.978	16502.91
242.049	16502.38
242.121	16484.6
242.192	16473.08
242.264	16433.94
242.335	16387.96
242.407	16366.37
242.478	16336.54
242.55	16314.46
242.621	16282.75
242.693	16245.73
242.764	16206.98
242.836	16183.89
242.907	16155.55
242.979	16135.21
243.05	16115.16
243.122	16088.66
243.193	16060.12
243.264	16007.44
243.336	15971.87
243.407	15948.69
243.479	15938.32
243.55	15903.47
243.622	15868.34
243.693	15833.44
243.764	15820.57
243.836	15779.99
243.907	15747.26
243.978	15719.98
244.05	15690
244.121	15637.7
244.192	15613.84
244.264	15577.69
244.335	15551.03
244.407	15509.63
244.478	15480.28
244.549	15441.04
244.62	15399.35
244.692	15372.74
244.763	15355.72
244.834	15327.19
244.906	15292.34
244.977	15272.09
245.048	15258.93
245.119	15230.54
245.191	15189.81
245.262	15141.56
245.333	15129.8
245.405	15099.96
245.476	15074.03
245.547	15050.6
245.618	15032.04
245.689	15017.87
245.761	14993.92
245.832	14962.68
245.903	14945.52
245.974	14922.91
246.045	14901.94
246.117	14898.52
246.188	14860.2
246.259	14818.94
246.33	14791.89
246.401	14762.25
246.473	14715.39
246.544	14680.4
246.615	14668.06
246.686	14641.21
246.757	14628.19
246.828	14590.3
246.899	14583.94
246.97	14541.04
247.042	14507.63
247.113	14489.75
247.184	14473.84
247.255	14440.48
247.326	14415.32
247.397	14381.38
247.468	14353.04
247.539	14323.54
247.61	14277.31
247.681	14264.05
247.752	14250.41
247.823	14218.83
247.894	14190.87
247.965	14154.48
248.037	14122.28
248.108	14072.33
248.179	14044.71
248.25	14013.38
248.321	13995.93
248.392	13948.64
248.463	13947.14
248.534	13913.93
248.605	13897.35
248.675	13863.84
248.746	13839.55
248.817	13814.62
248.888	13795.25
248.959	13759.09
249.03	13737.06
249.101	13720.48
249.172	13686.83
249.243	13645.03
249.314	13639.1
249.385	13620.79
249.456	13608.69
249.527	13575.23
249.598	13564.19
249.669	13538.98
249.739	13517.82
249.81	13503.21
249.881	13469.03
249.952	13444.78
250.023	13428.88
250.094	13384.24
250.165	13354.64
250.235	13330.2
250.306	13314.67
250.377	13277.94
250.448	13266.08
250.519	13224.48
250.59	13211.95
250.66	13189.34
250.731	13182.78
250.802	13154.92
250.873	13137.32
250.944	13119.2
251.014	13092.01
251.085	13089.16
251.156	13079.52
251.227	13073.79
251.297	13063.23
251.368	13051.56
251.439	13042.6
251.51	13023.22
251.58	12994.39
251.651	12964.99
251.722	12963.35
251.792	12920.01
251.863	12906.56
251.934	12884
252.005	12884.72
252.075	12858.74
252.146	12849.44
252.217	12843.75
252.287	12837.24
252.358	12813.52
252.429	12815.21
252.499	12792.75
252.57	12771.63
252.641	12757.94
252.711	12737.84
252.782	12694.26
252.852	12704.39
252.923	12675.03
252.994	12658.45
253.064	12656.47
253.135	12629.52
253.205	12594.77
253.276	12595.44
253.347	12586.28
253.417	12566.13
253.488	12539.72
253.558	12518.22
253.629	12489.92
253.699	12472.91
253.77	12458.01
253.841	12427.6
253.911	12397.47
253.982	12384.12
254.052	12375.05
254.123	12352.49
254.193	12332.34
254.264	12356.3
254.334	12312.97
254.405	12286.21
254.475	12254.3
254.546	12230.06
254.616	12224.03
254.687	12208.37
254.757	12202.58
254.827	12179.69
254.898	12165.03
254.968	12148.11
255.039	12126.09
255.109	12116.69
255.18	12079.91
255.25	12035.71
255.321	12027.66
255.391	12005
255.461	12005.48
255.532	11956.95
255.602	11935.06
255.673	11896.6
255.743	11865.51
255.813	11821.79
255.884	11810.9
255.954	11800.49
256.024	11799.96
256.095	11788.29
256.165	11763.81
256.235	11744.77
256.306	11723.9
256.376	11721.49
256.446	11718.31
256.517	11702.11
256.587	11694.35
256.657	11682.3
256.728	11663.51
256.798	11654.54
256.868	11636.08
256.938	11613.52
257.009	11608.51
257.079	11603.11
257.149	11614.05
257.219	11576.6
257.29	11572.46
257.36	11535.83
257.43	11532.99
257.5	11496.79
257.571	11467.87
257.641	11460.6
257.711	11432.21
257.781	11417.94
257.852	11398.9
257.922	11360.3
257.992	11342.13
258.062	11329.31
258.132	11326.52
258.202	11311.38
258.273	11289.21
258.343	11282.51
258.413	11243.86
258.483	11224.15
258.553	11190.9
258.623	11162.8
258.693	11148.97
258.764	11144.49
258.834	11147.62
258.904	11128.15
258.974	11100.35
259.044	11076.93
259.114	11068.11
259.184	11051.67
259.254	11034.95
259.324	10993.07
259.394	10983.82
259.464	10987.44
259.535	10969.07
259.605	10936.98
259.675	10915.39
259.745	10909.85
259.815	10873.08
259.885	10860.36
259.955	10878.68
260.025	10852.61
260.095	10837.86
260.165	10827.84
260.235	10828.51
260.305	10810.83
260.375	10779.41
260.445	10790.78
260.515	10799.02
260.585	10786.54
260.655	10770.88
260.725	10761.77
260.795	10758.21
260.865	10760.14
260.934	10733.34
261.004	10721.05
261.074	10711.71
261.144	10712.72
261.214	10697.88
261.284	10692.05
261.354	10687.18
261.424	10651.28
261.494	10661.64
261.564	10636.87
261.634	10631.67
261.703	10596.3
261.773	10582.76
261.843	10577.85
261.913	10563.05
261.983	10528.99
262.053	10517.67
262.123	10499.12
262.192	10475.56
262.262	10470.74
262.332	10441.78
262.402	10432.24
