Data from 20250704_urea_0.5M_MAYP1162681_11-05-05-769.txt Node
Date: Fri Jul 04 11:05:05 BST 2025
User: adleo
Spectrometer: MAYP116268
Trigger mode: 0
Integration Time (sec): 1.000000E0
Scans to average: 1
Electric dark correction enabled: true
Nonlinearity correction enabled: true
Boxcar width: 10
XAxis mode: Wavelengths
Number of Pixels in Spectrum: 2068
>>>>>Begin Spectral Data<<<<<
179.565	1242.7
179.642	1298.79
179.718	1343.57
179.795	1384.8
179.871	1420.46
179.948	1438.51
180.024	1461.24
180.101	1484.61
180.177	1498.48
180.254	1521.79
180.33	1541.93
180.407	1597.1
180.483	1695.64
180.56	1789
180.636	1877.5
180.712	1863.24
180.789	1875.31
180.865	1889.19
180.942	1896.36
181.018	1905.16
181.095	1917.76
181.171	1922.99
181.248	1925.23
181.324	1939.11
181.4	1946.96
181.477	1957.28
181.553	1970.78
181.63	1989.04
181.706	2003.5
181.782	2011.53
181.859	2011.29
181.935	2018.14
182.011	2016.9
182.088	2030.6
182.164	2048.49
182.24	2060.09
182.317	2072.55
182.393	2069.88
182.469	2085.82
182.546	2103.18
182.622	2107.03
182.698	2100.51
182.775	2108.36
182.851	2129.15
182.927	2122.78
183.003	2116.45
183.08	2112.17
183.156	2121.21
183.232	2117.74
183.308	2107.08
183.385	2117.07
183.461	2135.34
183.537	2138.43
183.613	2149.37
183.69	2141.81
183.766	2133.77
183.842	2142.85
183.918	2148.85
183.995	2164.21
184.071	2167.02
184.147	2160.36
184.223	2150.99
184.299	2168.45
184.375	2161.56
184.452	2160.99
184.528	2213.76
184.604	2226.12
184.68	2234.45
184.756	2243.16
184.832	2250.68
184.908	2256.19
184.985	2254.77
185.061	2236.74
185.137	2243.82
185.213	2231.08
185.289	2235.55
185.365	2226.61
185.441	2221.66
185.517	2234.22
185.593	2226.8
185.669	2220.66
185.745	2232.18
185.822	2247.21
185.898	2234.17
185.974	2242.06
186.05	2233.35
186.126	2197.71
186.202	2191.57
186.278	2190.19
186.354	2179.53
186.43	2186.58
186.506	2184.58
186.582	2184.77
186.658	2192.48
186.734	2172.93
186.81	2177.25
186.886	2175.3
186.962	2189.1
187.038	2187.63
187.114	2178.53
187.19	2188.81
187.266	2180.53
187.341	2180.01
187.417	2174.54
187.493	2175.87
187.569	2179.11
187.645	2174.64
187.721	2161.31
187.797	2168.64
187.873	2172.16
187.949	2168.12
188.025	2160.55
188.101	2162.69
188.176	2168.25
188.252	2163.97
188.328	2172.2
188.404	2172.44
188.48	2168.92
188.556	2162.54
188.632	2162.54
188.707	2163.3
188.783	2161.26
188.859	2154.74
188.935	2143.23
189.011	2149.27
189.086	2143.04
189.162	2133.76
189.238	2131.43
189.314	2128.29
189.39	2120.49
189.465	2112.31
189.541	2127.68
189.617	2111.98
189.693	2105.94
189.768	2107.18
189.844	2130.3
189.92	2121.22
189.996	2131.31
190.071	2143.73
190.147	2141.92
190.223	2148.39
190.298	2141.68
190.374	2128.74
190.45	2140.82
190.526	2151.43
190.601	2145.43
190.677	2149.14
190.753	2178.04
190.828	2182.36
190.904	2199.78
190.98	2211.39
191.055	2224.24
191.131	2216.19
191.207	2236.13
191.282	2246.92
191.358	2239.79
191.433	2227.74
191.509	2241.87
191.585	2238.2
191.66	2239.01
191.736	2246.62
191.811	2240.77
191.887	2259.05
191.963	2282.27
192.038	2288.65
192.114	2288.7
192.189	2294.79
192.265	2290.51
192.34	2271.79
192.416	2268.32
192.491	2262.9
192.567	2269.94
192.642	2270.56
192.718	2268.75
192.793	2255.86
192.869	2254.67
192.944	2256.86
193.02	2263.04
193.095	2268.13
193.171	2273.13
193.246	2273.56
193.322	2270.89
193.397	2269.13
193.473	2254.14
193.548	2233.77
193.624	2238.72
193.699	2237.34
193.775	2250.38
193.85	2250.05
193.925	2257.43
194.001	2257.43
194.076	2255.09
194.152	2244
194.227	2236.63
194.302	2228.68
194.378	2232.01
194.453	2230.3
194.529	2241.34
194.604	2224.97
194.679	2218.26
194.755	2200.47
194.83	2212.04
194.905	2211.52
194.981	2224.7
195.056	2218.28
195.131	2226.94
195.207	2226.79
195.282	2215.04
195.357	2197.15
195.433	2214.18
195.508	2202.52
195.583	2208.61
195.659	2216.84
195.734	2225.41
195.809	2226.7
195.884	2235.54
195.96	2238.64
196.035	2251.01
196.11	2249.29
196.185	2262.38
196.261	2267.09
196.336	2298.59
196.411	2286.79
196.486	2291.4
196.561	2282.69
196.637	2288.83
196.712	2302.35
196.787	2306.49
196.862	2325.71
196.937	2336.37
197.013	2343.23
197.088	2351.99
197.163	2376.51
197.238	2394.65
197.313	2391.89
197.388	2404.08
197.464	2434.41
197.539	2445.55
197.614	2440.41
197.689	2453.69
197.764	2470.46
197.839	2489.21
197.914	2480.78
197.989	2502.31
198.065	2513.69
198.14	2562.19
198.215	2587.19
198.29	2601.43
198.365	2612.39
198.44	2625.63
198.515	2654.59
198.59	2668.79
198.665	2695.85
198.74	2704.04
198.815	2706.09
198.89	2731.24
198.965	2762.08
199.04	2757.07
199.115	2771.93
199.19	2814
199.265	2815.86
199.34	2827.16
199.415	2861.01
199.49	2885.4
199.565	2893.98
199.64	2919.86
199.715	2921.29
199.79	2930.44
199.865	2934.39
199.94	2936.82
200.015	2965.34
200.09	2970.54
200.165	2977.45
200.24	2984.17
200.315	3023.77
200.39	3038.13
200.464	3044.7
200.539	3044.08
200.614	3062.2
200.689	3084.13
200.764	3090.95
200.839	3108.54
200.914	3116.45
200.989	3106.39
201.063	3118.93
201.138	3101.06
201.213	3099.68
201.288	3077.94
201.363	3083.8
201.438	3087.38
201.512	3100.87
201.587	3082.93
201.662	3084.84
201.737	3098.05
201.812	3105.49
201.886	3072.75
201.961	3084.11
202.036	3069.71
202.111	3069.19
202.186	3037.6
202.26	3019.9
202.335	2999.68
202.41	2993.53
202.485	2975.09
202.559	2956.59
202.634	2931.09
202.709	2941.76
202.784	2924.07
202.858	2922.17
202.933	2904.77
203.008	2894.85
203.082	2873.17
203.157	2871.93
203.232	2831.77
203.306	2808.17
203.381	2777.38
203.456	2754.65
203.53	2731.42
203.605	2715.32
203.68	2692.39
203.754	2689.3
203.829	2680.34
203.904	2659.33
203.978	2647.85
204.053	2651.18
204.127	2636.52
204.202	2631.94
204.277	2614.46
204.351	2606.75
204.426	2602.12
204.5	2591.84
204.575	2560.17
204.65	2571.85
204.724	2564.84
204.799	2574.5
204.873	2571.41
204.948	2571.69
205.022	2562.41
205.097	2554.16
205.171	2565.16
205.246	2571.4
205.32	2568.88
205.395	2563.45
205.469	2553.69
205.544	2556.07
205.618	2537.17
205.693	2549.93
205.767	2539.69
205.842	2559.37
205.916	2553.51
205.991	2544.46
206.065	2551.6
206.14	2567.98
206.214	2564.35
206.289	2555.54
206.363	2565.83
206.438	2569.93
206.512	2576.4
206.586	2593.5
206.661	2603.41
206.735	2586.66
206.81	2591.18
206.884	2610.66
206.958	2603.85
207.033	2625.42
207.107	2640.19
207.181	2677.89
207.256	2676.41
207.33	2704.61
207.405	2724.4
207.479	2750.55
207.553	2765.89
207.628	2757.46
207.702	2780.43
207.776	2782.43
207.851	2798.44
207.925	2828.91
207.999	2838.68
208.073	2855.08
208.148	2875.91
208.222	2879.67
208.296	2931.05
208.371	2969.55
208.445	3000.69
208.519	3052.27
208.593	3089.75
208.668	3112.85
208.742	3148.75
208.816	3181.12
208.89	3229.33
208.965	3265.1
209.039	3316.08
209.113	3376.65
209.187	3443.09
209.261	3487.39
209.336	3562.87
209.41	3639.67
209.484	3697.83
209.558	3782.34
209.632	3857.3
209.707	3932.71
209.781	4032.08
209.855	4124
209.929	4218.33
210.003	4306.8
210.077	4395.54
210.151	4536.4
210.226	4664.37
210.3	4785.18
210.374	4917.72
210.448	5022.27
210.522	5140.37
210.596	5263.04
210.67	5393.3
210.744	5563.63
210.818	5717.39
210.892	5867.24
210.966	5992.03
211.041	6142.49
211.115	6278.53
211.189	6443.06
211.263	6609.06
211.337	6758.59
211.411	6922.59
211.485	7069
211.559	7234.15
211.633	7396.68
211.707	7530.55
211.781	7706.53
211.855	7843.73
211.929	8002.79
212.003	8158.63
212.077	8350.17
212.151	8539.37
212.225	8729.75
212.299	8904.08
212.373	9083.53
212.447	9257.82
212.52	9482.23
212.594	9674.86
212.668	9876.05
212.742	10051.51
212.816	10237.73
212.89	10426.94
212.964	10616.39
213.038	10820.87
213.112	11037.4
213.186	11245.7
213.26	11411.6
213.333	11559.17
213.407	11761.04
213.481	11953.47
213.555	12159.06
213.629	12339.08
213.703	12517.67
213.777	12702.91
213.85	12873.6
213.924	13099.38
213.998	13295.13
214.072	13470.41
214.146	13645.39
214.219	13826.73
214.293	14006.83
214.367	14188.56
214.441	14381.08
214.515	14555
214.588	14709.93
214.662	14853.91
214.736	15007.63
214.81	15201.36
214.883	15388.63
214.957	15549.67
215.031	15712.74
215.105	15863.46
215.178	16017.75
215.252	16180.9
215.326	16316.97
215.4	16448.98
215.473	16554.48
215.547	16688.8
215.621	16825.72
215.694	16989.34
215.768	17117.3
215.842	17259.96
215.915	17395.33
215.989	17511.72
216.063	17634.85
216.136	17768.78
216.21	17898.85
216.284	18053.64
216.357	18181.54
216.431	18298.6
216.504	18427.08
216.578	18577.33
216.652	18707.26
216.725	18836.55
216.799	18954.72
216.873	19074.81
216.946	19206.56
217.02	19313.98
217.093	19425.1
217.167	19512.52
217.24	19587.31
217.314	19683.02
217.387	19766.82
217.461	19863.49
217.535	19974.57
217.608	20063.2
217.682	20156.5
217.755	20269.36
217.829	20341.6
217.902	20431.34
217.976	20519.97
218.049	20594.76
218.123	20665.9
218.196	20751.35
218.27	20823.21
218.343	20889.86
218.417	20965.24
218.49	21029.77
218.563	21121.2
218.637	21203
218.71	21300.94
218.784	21386.78
218.857	21472.18
218.931	21553.93
219.004	21612.88
219.077	21683.73
219.151	21754.44
219.224	21808.43
219.298	21857.11
219.371	21934.53
219.444	21980.52
219.518	22038.17
219.591	22101.41
219.665	22184.47
219.738	22243.38
219.811	22282.96
219.885	22341.48
219.958	22404.1
220.031	22461.18
220.105	22501.58
220.178	22553.79
220.251	22587.93
220.325	22636.58
220.398	22679.53
220.471	22724.66
220.544	22779.28
220.618	22807.73
220.691	22856.76
220.764	22913.65
220.838	22955.36
220.911	22983.13
220.984	23033.71
221.057	23070.45
221.131	23106.08
221.204	23097.5
221.277	23141.81
221.35	23190.94
221.424	23205.79
221.497	23225.18
221.57	23251.26
221.643	23283.91
221.716	23295.53
221.79	23311.97
221.863	23325.96
221.936	23342.93
222.009	23361.01
222.082	23373.21
222.155	23376.88
222.229	23396.46
222.302	23395.54
222.375	23400.07
222.448	23406.49
222.521	23410.15
222.594	23426.93
222.667	23412.66
222.74	23443.28
222.814	23441.54
222.887	23444
222.96	23462.47
223.033	23470.67
223.106	23471.54
223.179	23469.42
223.252	23473.42
223.325	23474.05
223.398	23473.23
223.471	23480.27
223.544	23473.32
223.617	23474.24
223.69	23474.87
223.763	23463.82
223.837	23471.49
223.91	23477.18
223.983	23456.06
224.056	23435.23
224.129	23424.57
224.202	23435.23
224.275	23410.88
224.348	23395.93
224.42	23374.95
224.493	23350.65
224.566	23333.91
224.639	23324.17
224.712	23318.77
224.785	23308.26
224.858	23286.42
224.931	23269.25
225.004	23232.55
225.077	23226.72
225.15	23194.22
225.223	23184.43
225.296	23194.8
225.369	23161.38
225.442	23137.42
225.514	23132.98
225.587	23126.67
225.66	23108.97
225.733	23102.56
225.806	23084.48
225.879	23058.58
225.952	23035.68
226.025	23030.33
226.097	23036.6
226.17	23019.82
226.243	22977.2
226.316	22946.53
226.389	22938.09
226.461	22920.98
226.534	22910.47
226.607	22882.69
226.68	22878.89
226.753	22861
226.825	22806.99
226.898	22796.92
226.971	22770.4
227.044	22747.55
227.117	22724.5
227.189	22712.88
227.262	22696.01
227.335	22679.08
227.407	22654.55
227.48	22638.78
227.553	22604.7
227.626	22564
227.698	22536.04
227.771	22511.31
227.844	22484.41
227.916	22451.24
227.989	22411.37
228.062	22389.05
228.134	22382.26
228.207	22357.86
228.28	22323.87
228.352	22298.86
228.425	22275.76
228.498	22264.96
228.57	22231.03
228.643	22228.18
228.716	22200.08
228.788	22163.29
228.861	22124.2
228.934	22109.98
229.006	22074.79
229.079	22047.46
229.151	22026.44
229.224	21989.9
229.296	21980.74
229.369	21980.41
229.442	21981.66
229.514	21953.37
229.587	21935.14
229.659	21891.81
229.732	21862.79
229.804	21856.09
229.877	21851.03
229.949	21840.76
230.022	21825.72
230.094	21801.91
230.167	21772.65
230.239	21732.84
230.312	21709.46
230.384	21714.23
230.457	21691.29
230.529	21667.43
230.602	21658.56
230.674	21631.42
230.747	21619.47
230.819	21608.33
230.892	21547.7
230.964	21507.84
231.037	21495.4
231.109	21467.06
231.181	21451.3
231.254	21419.1
231.326	21387.44
231.399	21352.54
231.471	21310.51
231.544	21254.07
231.616	21233.73
231.688	21197.68
231.761	21163.03
231.833	21128.95
231.905	21076.56
231.978	21044.12
232.05	21016.65
232.122	20986.72
232.195	20947.25
232.267	20930.72
232.339	20885.27
232.412	20877.07
232.484	20852.93
232.556	20813.41
232.629	20802.18
232.701	20777.65
232.773	20743.48
232.846	20700.73
232.918	20681.07
232.99	20653.26
233.062	20633.84
233.135	20611.96
233.207	20569.16
233.279	20546.75
233.351	20517.55
233.424	20478.99
233.496	20436.92
233.568	20420.34
233.64	20372.05
233.713	20338.61
233.785	20298.95
233.857	20274.18
233.929	20224.1
234.001	20207.96
234.074	20187.04
234.146	20138.18
234.218	20101.94
234.29	20071.29
234.362	20036.93
234.434	19976.11
234.507	19928.64
234.579	19894.23
234.651	19857.61
234.723	19838.96
234.795	19813.17
234.867	19775.49
234.939	19759.59
235.012	19731.88
235.084	19708.79
235.156	19691.25
235.228	19658.1
235.3	19619.98
235.372	19578.63
235.444	19562.87
235.516	19502.11
235.588	19472.47
235.66	19437.82
235.732	19394.02
235.804	19417.77
235.876	19396.96
235.948	19388.18
236.02	19358.16
236.092	19315.23
236.164	19281.88
236.236	19244.53
236.308	19206.08
236.38	19185.31
236.452	19143.77
236.524	19115.67
236.596	19089.5
236.668	19058.28
236.74	19025.99
236.812	18995.34
236.884	18976.36
236.956	18944.07
237.028	18904.17
237.1	18854.48
237.172	18834.68
237.244	18825.14
237.316	18751.93
237.388	18704.37
237.46	18653.58
237.532	18636.42
237.604	18594.55
237.675	18570.6
237.747	18533.92
237.819	18491.52
237.891	18449.45
237.963	18412.39
238.035	18369.74
238.107	18304.01
238.178	18287.53
238.25	18250.8
238.322	18241.65
238.394	18177.75
238.466	18130.76
238.538	18104.88
238.609	18082.86
238.681	18027.39
238.753	17979.01
238.825	17947.78
238.897	17913.42
238.968	17901.57
239.04	17857.18
239.112	17850.82
239.184	17799.21
239.255	17770.92
239.327	17738
239.399	17708.41
239.471	17687.64
239.542	17668.75
239.614	17648.41
239.686	17580.03
239.758	17558.44
239.829	17510.97
239.901	17502.49
239.973	17471.5
240.044	17442.44
240.116	17410.34
240.188	17381.43
240.259	17345.43
240.331	17305.67
240.403	17285.33
240.474	17233.67
240.546	17191.35
240.618	17137.86
240.689	17101.13
240.761	17069.76
240.833	17059.06
240.904	17022.72
240.976	16979.78
241.048	16944.99
241.119	16916.55
241.191	16889.51
241.262	16866.81
241.334	16826.86
241.405	16792.11
241.477	16753.94
241.549	16712.44
241.62	16682.27
241.692	16654.71
241.763	16635.91
241.835	16598.65
241.906	16560.1
241.978	16512.29
242.049	16496.72
242.121	16481.39
242.192	16471.13
242.264	16420.9
242.335	16368.95
242.407	16338.05
242.478	16299.83
242.55	16263.44
242.621	16221.22
242.693	16183.87
242.764	16139.77
242.836	16106.03
242.907	16079.28
242.979	16054.75
243.05	16029.15
243.122	15999.99
243.193	15968.47
243.264	15906.87
243.336	15872.27
243.407	15852.84
243.479	15841.03
243.55	15804.4
243.622	15770.9
243.693	15727.14
243.764	15710.6
243.836	15669.05
243.907	15630.49
243.978	15594.39
244.05	15572.89
244.121	15530.28
244.192	15514.23
244.264	15474.95
244.335	15443.57
244.407	15384.28
244.478	15353.72
244.549	15319.98
244.62	15270.38
244.692	15236.16
244.763	15223.58
244.834	15198.9
244.906	15158.89
244.977	15134.21
245.048	15117.58
245.119	15081.43
245.191	15048.26
245.262	14990.95
245.333	14978.8
245.405	14949.83
245.476	14927.66
245.547	14903.08
245.618	14880.18
245.689	14846.24
245.761	14816.84
245.832	14785.41
245.903	14773.21
245.974	14751.52
246.045	14716.19
246.117	14706.64
246.188	14660.22
246.259	14614.77
246.33	14580.54
246.401	14546.89
246.473	14506.06
246.544	14469.24
246.615	14451.59
246.686	14416.35
246.757	14407.53
246.828	14370.27
246.899	14361.93
246.97	14311.65
247.042	14264.84
247.113	14245.95
247.184	14240.26
247.255	14210.13
247.326	14183.04
247.397	14144.81
247.468	14113.67
247.539	14087.93
247.61	14046.76
247.681	14034.04
247.752	14028.44
247.823	13983.95
247.894	13961.24
247.965	13917.28
248.037	13882.96
248.108	13840.78
248.179	13815.03
248.25	13787.07
248.321	13767.41
248.392	13725.71
248.463	13731.97
248.534	13707.44
248.605	13680.73
248.675	13653.49
248.746	13632.86
248.817	13612.28
248.888	13603.26
248.959	13559.49
249.03	13543.39
249.101	13520.01
249.172	13483.42
249.243	13427.07
249.314	13425.28
249.385	13405.91
249.456	13389.47
249.527	13370.67
249.598	13351.82
249.669	13329.11
249.739	13309.49
249.81	13288.62
249.881	13254.68
249.952	13225.76
250.023	13196.21
250.094	13163.91
250.165	13126.16
250.235	13104.33
250.306	13081.67
250.377	13045.32
250.448	13032.4
250.519	12987.38
250.59	12979.57
250.66	12957.54
250.731	12957.44
250.802	12929.19
250.873	12911.45
250.944	12893.57
251.014	12859.1
251.085	12855.49
251.156	12831.96
251.227	12820.1
251.297	12808.49
251.368	12794.79
251.439	12791.52
251.51	12788.09
251.58	12756.62
251.651	12728.37
251.722	12711.06
251.792	12672.45
251.863	12648.78
251.934	12637.69
252.005	12645.17
252.075	12619.62
252.146	12616.05
252.217	12602.65
252.287	12593.97
252.358	12566.5
252.429	12571.17
252.499	12550.3
252.57	12531.64
252.641	12528.99
252.711	12508.89
252.782	12468.5
252.852	12472.06
252.923	12441.45
252.994	12426.51
253.064	12421.01
253.135	12393.15
253.205	12366.74
253.276	12360.95
253.347	12349.72
253.417	12326.49
253.488	12299.11
253.558	12274.96
253.629	12255.34
253.699	12238.37
253.77	12222.75
253.841	12196.73
253.911	12177.15
253.982	12157.34
254.052	12151.08
254.123	12128.37
254.193	12111.21
254.264	12131.07
254.334	12093.33
254.405	12064.46
254.475	12020.88
254.546	11998.47
254.616	11993.46
254.687	11979.38
254.757	11969.69
254.827	11948.15
254.898	11926.99
254.968	11908.38
255.039	11881.59
255.109	11868.43
255.18	11840.66
255.25	11801.53
255.321	11795.21
255.391	11758.53
255.461	11766.29
255.532	11717.66
255.602	11691.05
255.673	11651.43
255.743	11620.97
255.813	11582.85
255.884	11572.58
255.954	11569.3
256.024	11574.99
256.095	11560.48
256.165	11536.53
256.235	11522.45
256.306	11508.19
256.376	11507.8
256.446	11495.66
256.517	11489.78
256.587	11479.94
256.657	11469.39
256.728	11453.58
256.798	11431.7
256.868	11409.48
256.938	11376.56
257.009	11370.73
257.079	11369.24
257.149	11376.81
257.219	11340.61
257.29	11331.74
257.36	11295.84
257.43	11293.87
257.5	11245.67
257.571	11226.54
257.641	11209.48
257.711	11178.92
257.781	11165.57
257.852	11148.95
257.922	11121.28
257.992	11094.88
258.062	11080.66
258.132	11076.13
258.202	11056.81
258.273	11049.67
258.343	11054.44
258.413	11032.28
258.483	11015.22
258.553	10981.58
258.623	10960.95
258.693	10949.2
258.764	10946.02
258.834	10944.96
258.904	10926.69
258.974	10905.01
259.044	10878.89
259.114	10871.13
259.184	10863.76
259.254	10838.51
259.324	10803.43
259.394	10791.09
259.464	10802.8
259.535	10779.05
259.605	10749.6
259.675	10727.34
259.745	10708.07
259.815	10676.75
259.885	10651.45
259.955	10658.1
260.025	10634.69
260.095	10614.74
260.165	10606.26
260.235	10612.71
260.305	10589.3
260.375	10558.17
260.445	10564.53
260.515	10562.27
260.585	10559.57
260.655	10538.94
260.725	10535.86
260.795	10527.48
260.865	10530.75
260.934	10495.68
261.004	10485.32
261.074	10466.91
261.144	10475.1
261.214	10477.03
261.284	10457.71
261.354	10458.82
261.424	10429.18
261.494	10434.63
261.564	10422.63
261.634	10414.73
261.703	10374.55
261.773	10365.87
261.843	10361.68
261.913	10347.13
261.983	10317.84
