Data from 20250704_urea_0.5M_MAYP1162681_11-05-00-767.txt Node
Date: Fri Jul 04 11:05:00 BST 2025
User: adleo
Spectrometer: MAYP116268
Trigger mode: 0
Integration Time (sec): 1.000000E0
Scans to average: 1
Electric dark correction enabled: true
Nonlinearity correction enabled: true
Boxcar width: 10
XAxis mode: Wavelengths
Number of Pixels in Spectrum: 2068
>>>>>Begin Spectral Data<<<<<
179.565	1236.48
179.642	1293.72
179.718	1342.63
179.795	1382.83
179.871	1415.88
179.948	1435.93
180.024	1459.15
180.101	1481.78
180.177	1494.73
180.254	1520.21
180.33	1541.41
180.407	1598.96
180.483	1696.16
180.56	1790.62
180.636	1877.98
180.712	1864.95
180.789	1873.41
180.865	1885.58
180.942	1894.46
181.018	1905.07
181.095	1919.1
181.171	1925.61
181.248	1926.56
181.324	1937.97
181.4	1944.96
181.477	1958.99
181.553	1971.07
181.63	1989.52
181.706	2004.69
181.782	2015.53
181.859	2012.24
181.935	2017.9
182.011	2009.3
182.088	2026.09
182.164	2042.88
182.24	2056.91
182.317	2067.13
182.393	2067.56
182.469	2082.35
182.546	2098.04
182.622	2102.71
182.698	2095.09
182.775	2104.7
182.851	2119.73
182.927	2111.36
183.003	2108.08
183.08	2100.19
183.156	2109.46
183.232	2103.75
183.308	2095.52
183.385	2102.18
183.461	2119.92
183.537	2119.07
183.613	2136.52
183.69	2126.25
183.766	2116.35
183.842	2123.96
183.918	2132.05
183.995	2145.04
184.071	2149.32
184.147	2141.9
184.223	2132.67
184.299	2145.85
184.375	2137.62
184.452	2144.38
184.528	2201.2
184.604	2209.52
184.68	2220.85
184.756	2228.27
184.832	2235.5
184.908	2238.12
184.985	2236.55
185.061	2221.56
185.137	2236.45
185.213	2225.18
185.289	2228.94
185.365	2222.75
185.441	2219.37
185.517	2228.99
185.593	2222.37
185.669	2220.09
185.745	2230.7
185.822	2246.63
185.898	2237.93
185.974	2245.01
186.05	2236.69
186.126	2199.8
186.202	2193.24
186.278	2188.05
186.354	2178.87
186.43	2187.1
186.506	2185.48
186.582	2189.43
186.658	2195.38
186.734	2172.12
186.81	2175.73
186.886	2179.82
186.962	2190.1
187.038	2187.34
187.114	2180.1
187.19	2189.57
187.266	2177.87
187.341	2178.54
187.417	2172.4
187.493	2171.3
187.569	2174.02
187.645	2165.88
187.721	2150.99
187.797	2159.6
187.873	2166.97
187.949	2161.64
188.025	2154.41
188.101	2158.55
188.176	2161.83
188.252	2156.41
188.328	2165.97
188.404	2164.3
188.48	2157.88
188.556	2152.55
188.632	2151.84
188.707	2156.03
188.783	2151.98
188.859	2146.89
188.935	2136.57
189.011	2141.9
189.086	2136.66
189.162	2128.53
189.238	2129.43
189.314	2127.29
189.39	2122.54
189.465	2114.16
189.541	2131.62
189.617	2114.03
189.693	2108.13
189.768	2109.6
189.844	2136.44
189.92	2125.6
189.996	2137.69
190.071	2151.34
190.147	2150.82
190.223	2159.62
190.298	2151.67
190.374	2141.87
190.45	2154.24
190.526	2163.85
190.601	2160.04
190.677	2161.52
190.753	2189.7
190.828	2192.69
190.904	2207.82
190.98	2221.01
191.055	2230.9
191.131	2221.48
191.207	2244.31
191.282	2254.87
191.358	2246.31
191.433	2228.46
191.509	2244.58
191.585	2237.49
191.66	2237.73
191.736	2247.01
191.811	2240.06
191.887	2256.01
191.963	2277.13
192.038	2283.65
192.114	2282.22
192.189	2287.98
192.265	2286.36
192.34	2262.61
192.416	2262.13
192.491	2258.23
192.567	2262.18
192.642	2264.28
192.718	2262.42
192.793	2251.38
192.869	2246.43
192.944	2249.1
193.02	2259.04
193.095	2261.09
193.171	2268.75
193.246	2267.94
193.322	2262.76
193.397	2260.71
193.473	2246.91
193.548	2231.2
193.624	2235.29
193.699	2236.05
193.775	2250.24
193.85	2252.71
193.925	2261.33
194.001	2259.57
194.076	2251.62
194.152	2243
194.227	2233.73
194.302	2227.59
194.378	2231.68
194.453	2230.54
194.529	2244.91
194.604	2232.21
194.679	2223.5
194.755	2202.85
194.83	2215.76
194.905	2214.76
194.981	2226.7
195.056	2216.66
195.131	2220.38
195.207	2219.38
195.282	2208.01
195.357	2186.82
195.433	2201.86
195.508	2190.87
195.583	2196.29
195.659	2210.09
195.734	2215.04
195.809	2217.99
195.884	2227.41
195.96	2226.65
196.035	2240.88
196.11	2238.78
196.185	2250.58
196.261	2256.34
196.336	2290.56
196.411	2275.61
196.486	2280.46
196.561	2271.85
196.637	2283.64
196.712	2303.16
196.787	2304.4
196.862	2319.72
196.937	2331
197.013	2335.71
197.088	2348.42
197.163	2372.51
197.238	2391.18
197.313	2388.9
197.388	2403.7
197.464	2432.65
197.539	2442.74
197.614	2434.04
197.689	2445.27
197.764	2461.08
197.839	2484.27
197.914	2474.08
197.989	2496.13
198.065	2511.17
198.14	2563.39
198.215	2585.77
198.29	2595.68
198.365	2610.4
198.44	2621.02
198.515	2648.55
198.59	2665.18
198.665	2691.57
198.74	2699.91
198.815	2701.53
198.89	2728.39
198.965	2755.37
199.04	2750.84
199.115	2770.94
199.19	2816.77
199.265	2817.29
199.34	2827.97
199.415	2857.19
199.49	2882.83
199.565	2892.21
199.64	2915.09
199.715	2913.18
199.79	2925.53
199.865	2931.2
199.94	2929.82
200.015	2962.19
200.09	2967.96
200.165	2975.06
200.24	2982.59
200.315	3024.82
200.39	3037.27
200.464	3041.75
200.539	3046.28
200.614	3062.68
200.689	3083.42
200.764	3092.82
200.839	3111.36
200.914	3113.89
200.989	3105.82
201.063	3120.61
201.138	3104.27
201.213	3105.74
201.288	3083.91
201.363	3089.96
201.438	3092.87
201.512	3113.03
201.587	3094.91
201.662	3097.29
201.737	3108.07
201.812	3113.89
201.886	3081.2
201.961	3095.56
202.036	3083.64
202.111	3079.54
202.186	3048.42
202.26	3030.16
202.335	3006.36
202.41	2999.97
202.485	2983.15
202.559	2964.79
202.634	2938.29
202.709	2946.34
202.784	2928.65
202.858	2929.56
202.933	2907.34
203.008	2899.14
203.082	2874.08
203.157	2875.08
203.232	2837.01
203.306	2817.7
203.381	2784.53
203.456	2761.99
203.53	2735.23
203.605	2714.85
203.68	2690.3
203.754	2687.54
203.829	2672.86
203.904	2653.19
203.978	2643.23
204.053	2649.28
204.127	2634.56
204.202	2633.9
204.277	2616.42
204.351	2607.75
204.426	2600.41
204.5	2591.7
204.575	2556.56
204.65	2567.13
204.724	2558.84
204.799	2561.84
204.873	2557.17
204.948	2559.5
205.022	2544.5
205.097	2539.26
205.171	2556.55
205.246	2565.88
205.32	2564.08
205.395	2565.22
205.469	2553.56
205.544	2554.65
205.618	2539.36
205.693	2552.41
205.767	2536.75
205.842	2561.8
205.916	2555.23
205.991	2547.42
206.065	2555.42
206.14	2570.41
206.214	2565.55
206.289	2555.74
206.363	2573.07
206.438	2575.98
206.512	2584.46
206.586	2607.03
206.661	2616.04
206.735	2593.38
206.81	2596.86
206.884	2613.09
206.958	2603.57
207.033	2625.47
207.107	2638.53
207.181	2675.23
207.256	2671.56
207.33	2697.33
207.405	2711.97
207.479	2741.13
207.553	2753.46
207.628	2744.8
207.702	2767.47
207.776	2774.29
207.851	2789.72
207.925	2813.99
207.999	2824.19
208.073	2835.63
208.148	2853.32
208.222	2856.18
208.296	2909.93
208.371	2947.14
208.445	2982.76
208.519	3035.3
208.593	3072.73
208.668	3096.87
208.742	3123.85
208.816	3161.94
208.89	3213.59
208.965	3250.02
209.039	3299.77
209.113	3362.05
209.187	3434.23
209.261	3481.86
209.336	3553.24
209.41	3632.43
209.484	3696.41
209.558	3778.24
209.632	3856.11
209.707	3937.78
209.781	4041.17
209.855	4132.51
209.929	4226.59
210.003	4316.42
210.077	4405.92
210.151	4546.79
210.226	4678.1
210.3	4808.2
210.374	4933.7
210.448	5046.56
210.522	5170.8
210.596	5290.31
210.67	5419.8
210.744	5582.48
210.818	5737.83
210.892	5885.36
210.966	6010.58
211.041	6159.86
211.115	6295.78
211.189	6466.13
211.263	6624.89
211.337	6773.51
211.411	6936.74
211.485	7092.38
211.559	7264.48
211.633	7425.67
211.707	7555.02
211.781	7725.99
211.855	7862.96
211.929	8031.3
212.003	8177.25
212.077	8364.71
212.151	8553.67
212.225	8740.68
212.299	8908.74
212.373	9078.84
212.447	9257.6
212.52	9466.79
212.594	9660.72
212.668	9863.21
212.742	10037.66
212.816	10228.07
212.89	10419.12
212.964	10608.41
213.038	10798.93
213.112	11004.87
213.186	11215.43
213.26	11391.41
213.333	11537.24
213.407	11730.82
213.481	11922.87
213.555	12132.26
213.629	12308.29
213.703	12494.25
213.777	12688.79
213.85	12869.02
213.924	13102.8
213.998	13302.12
214.072	13492.77
214.146	13667.27
214.219	13857.05
214.293	14033.96
214.367	14216.76
214.441	14412.75
214.515	14588.7
214.588	14746.23
214.662	14888.33
214.736	15041.42
214.81	15223.34
214.883	15409.5
214.957	15570.21
215.031	15721.95
215.105	15867.23
215.178	16020.65
215.252	16178.98
215.326	16316
215.4	16457.66
215.473	16559.88
215.547	16695.98
215.621	16840.71
215.694	16996.28
215.768	17119.76
215.842	17254.17
215.915	17385.84
215.989	17496.68
216.063	17616.68
216.136	17756.68
216.21	17886.85
216.284	18033.79
216.357	18171.76
216.431	18297.06
216.504	18428.23
216.578	18587.65
216.652	18723.35
216.725	18838.29
216.799	18957.03
216.873	19070.23
216.946	19186.9
217.02	19290.6
217.093	19389.34
217.167	19471.46
217.24	19559.6
217.314	19659.02
217.387	19751.54
217.461	19836.41
217.535	19956.21
217.608	20046.81
217.682	20139.87
217.755	20246.23
217.829	20320.5
217.902	20398.57
217.976	20478.71
218.049	20560.01
218.123	20614.23
218.196	20692.16
218.27	20771.64
218.343	20832.89
218.417	20909.76
218.49	20992.57
218.563	21085.25
218.637	21160.24
218.71	21241.21
218.784	21313.61
218.857	21396.27
218.931	21470.78
219.004	21552.62
219.077	21610.95
219.151	21674.28
219.224	21740.85
219.298	21807.03
219.371	21883.77
219.444	21935.45
219.518	22007.03
219.591	22059.09
219.665	22150.39
219.738	22211.13
219.811	22257.36
219.885	22325.43
219.958	22384.97
220.031	22426.81
220.105	22482.01
220.178	22524.05
220.251	22566.62
220.325	22619.31
220.398	22656.92
220.471	22699.48
220.544	22742.25
220.618	22772.05
220.691	22811.39
220.764	22838.29
220.838	22867.46
220.911	22891.66
220.984	22941.08
221.057	22971.31
221.131	23004.77
221.204	23002.02
221.277	23057.57
221.35	23115.44
221.424	23138.73
221.497	23163.03
221.57	23182.31
221.643	23205.17
221.716	23247.56
221.79	23273.64
221.863	23290.91
221.936	23312.36
222.009	23343.13
222.082	23359.86
222.155	23364.49
222.229	23395.78
222.302	23423.61
222.375	23426.45
222.448	23443.43
222.521	23451.24
222.594	23464.16
222.667	23462.28
222.74	23470.09
222.814	23459.15
222.887	23459.34
222.96	23467.59
223.033	23472.46
223.106	23477.47
223.179	23479.88
223.252	23473.03
223.325	23466.86
223.398	23462.18
223.471	23461.7
223.544	23450.13
223.617	23450.56
223.69	23455.24
223.763	23446.32
223.837	23433.73
223.91	23443.52
223.983	23424.96
224.056	23405.33
224.129	23402.1
224.202	23410.39
224.275	23412.42
224.348	23391.54
224.42	23366.9
224.493	23336.61
224.566	23319.88
224.639	23308.69
224.712	23290.8
224.785	23280.77
224.858	23260.42
224.931	23238.53
225.004	23208.64
225.077	23196.87
225.15	23153.86
225.223	23135.78
225.296	23141.18
225.369	23101.11
225.442	23071.03
225.514	23054.29
225.587	23042.72
225.66	23022.18
225.733	23012.59
225.806	22994.5
225.879	22974.3
225.952	22940.5
226.025	22934.09
226.097	22936.26
226.17	22918.28
226.243	22881.15
226.316	22857.91
226.389	22843.78
226.461	22842.87
226.534	22829.27
226.607	22805.41
226.68	22801.21
226.753	22785.78
226.825	22734.14
226.898	22744.85
226.971	22727.3
227.044	22705.84
227.117	22682.99
227.189	22658.84
227.262	22643.75
227.335	22619.45
227.407	22589.08
227.48	22577.02
227.553	22560.2
227.626	22520.85
227.698	22498.1
227.771	22483.2
227.844	22444.49
227.916	22421.93
227.989	22368.23
228.062	22342.72
228.134	22343.54
228.207	22325.37
228.28	22298.66
228.352	22272.73
228.425	22252.29
228.498	22234.5
228.57	22204.08
228.643	22198.54
228.716	22174
228.788	22143.77
228.861	22119.91
228.934	22117.79
229.006	22094.46
229.079	22059.41
229.151	22032.42
229.224	21991.73
229.296	21969.51
229.369	21978.62
229.442	21970.14
229.514	21939
229.587	21926.13
229.659	21872.92
229.732	21848.67
229.804	21831.7
229.877	21840.86
229.949	21813.82
230.022	21800.08
230.094	21773.67
230.167	21755.35
230.239	21725.7
230.312	21696.11
230.384	21684.2
230.457	21655.76
230.529	21634.22
230.602	21616.34
230.674	21587.7
230.747	21585.78
230.819	21569.92
230.892	21512.99
230.964	21490.63
231.037	21485.18
231.109	21455.49
231.181	21445.8
231.254	21404.55
231.326	21368.16
231.399	21318.85
231.471	21276
231.544	21223.66
231.616	21207.8
231.688	21169.24
231.761	21132.37
231.833	21091.55
231.905	21038.44
231.978	21014.58
232.05	20982.48
232.122	20949.56
232.195	20924.45
232.267	20901.37
232.339	20863.53
232.412	20847.1
232.484	20801.26
232.556	20749.79
232.629	20740.59
232.701	20714.61
232.773	20690.85
232.846	20663.57
232.918	20643.86
232.99	20620.82
233.062	20613.45
233.135	20588.01
233.207	20536.92
233.279	20511.67
233.351	20489.74
233.424	20453.79
233.496	20399.09
233.568	20389.02
233.64	20347.48
233.713	20312.68
233.785	20278.75
233.857	20249.26
233.929	20203.38
234.001	20184.97
234.074	20178.75
234.146	20121.94
234.218	20093.7
234.29	20054.76
234.362	20006.18
234.434	19950.62
234.507	19907.53
234.579	19856.69
234.651	19817.37
234.723	19808.21
234.795	19778.14
234.867	19743.59
234.939	19736.36
235.012	19711.93
235.084	19676.31
235.156	19651.69
235.228	19616.27
235.3	19573.72
235.372	19546.68
235.444	19533.57
235.516	19490.64
235.588	19459.99
235.66	19434.98
235.732	19384.28
235.804	19414.93
235.876	19404.23
235.948	19398.35
236.02	19356.28
236.092	19318.6
236.164	19280.87
236.236	19226.32
236.308	19185.74
236.38	19152.97
236.452	19107.58
236.524	19071.05
236.596	19052.83
236.668	19013.51
236.74	18974.76
236.812	18950.28
236.884	18916.89
236.956	18874.19
237.028	18824.8
237.1	18776.08
237.172	18747.89
237.244	18734.44
237.316	18659.84
237.388	18606.55
237.46	18556.52
237.532	18549.54
237.604	18506.21
237.675	18490.74
237.747	18475.81
237.819	18443.52
237.891	18413.3
237.963	18371.52
238.035	18328.1
238.107	18248.39
238.178	18234.37
238.25	18205.36
238.322	18188.45
238.394	18142.91
238.466	18105.22
238.538	18081.32
238.609	18056.93
238.681	18009.95
238.753	17963.39
238.825	17927.06
238.897	17900.79
238.968	17890.82
239.04	17849.18
239.112	17844.75
239.184	17794.68
239.255	17749.47
239.327	17721.38
239.399	17688.37
239.471	17666.05
239.542	17648.46
239.614	17634.73
239.686	17582.3
239.758	17558.54
239.829	17506.63
239.901	17478.92
239.973	17447.02
240.044	17415.07
240.116	17375.5
240.188	17337.09
240.259	17308.08
240.331	17266.73
240.403	17243.74
240.474	17187.93
240.546	17139.74
240.618	17084.27
240.689	17046.68
240.761	17012.46
240.833	16993.37
240.904	16940.5
240.976	16902.09
241.048	16873.42
241.119	16854.72
241.191	16817.51
241.262	16795.58
241.334	16760.98
241.405	16729.55
241.477	16693.46
241.549	16662.95
241.62	16635.62
241.692	16610.46
241.763	16590.03
241.835	16555.66
241.906	16522.07
241.978	16468.14
242.049	16449.2
242.121	16425.87
242.192	16412.08
242.264	16366.78
242.335	16313.28
242.407	16308.31
242.478	16269.42
242.55	16234.43
242.621	16183.72
242.693	16153.79
242.764	16112.49
242.836	16079.23
242.907	16054.99
242.979	16022.98
243.05	15995.03
243.122	15968.52
243.193	15933.62
243.264	15867.93
243.336	15832.79
243.407	15805.61
243.479	15803
243.55	15777.94
243.622	15747.86
243.693	15713.83
243.764	15708.39
243.836	15666.21
243.907	15618.3
243.978	15588.37
244.05	15570.48
244.121	15531.01
244.192	15501.65
244.264	15459.04
244.335	15431.62
244.407	15386.93
244.478	15358.06
244.549	15317.19
244.62	15274.43
244.692	15243.48
244.763	15219.77
244.834	15185.5
244.906	15141.78
244.977	15109.87
245.048	15085.62
245.119	15044.26
245.191	15000.98
245.262	14945.21
245.333	14939.81
245.405	14918.02
245.476	14888.95
245.547	14854.34
245.618	14833.47
245.689	14816.36
245.761	14788.98
245.832	14756.25
245.903	14732.58
245.974	14709.1
246.045	14684.81
246.117	14667.21
246.188	14623.83
246.259	14591.15
246.33	14562.66
246.401	14535.95
246.473	14494.93
246.544	14453.38
246.615	14442.48
246.686	14410.57
246.757	14396.64
246.828	14349.69
246.899	14341.35
246.97	14299.02
247.042	14258
247.113	14236.5
247.184	14225.51
247.255	14194.13
247.326	14165.64
247.397	14132.76
247.468	14100.17
247.539	14068.89
247.61	14025.5
247.681	14016.63
247.752	14000.44
247.823	13960.04
247.894	13944.03
247.965	13906.63
248.037	13883.1
248.108	13840.92
248.179	13817.35
248.25	13783.27
248.321	13774.78
248.392	13729.37
248.463	13723.15
248.534	13700.74
248.605	13677.4
248.675	13638.02
248.746	13613.43
248.817	13596.08
248.888	13577.67
248.959	13539.15
249.03	13520.73
249.101	13494.99
249.172	13456.91
249.243	13409.67
249.314	13412.8
249.385	13375.78
249.456	13356.35
249.527	13324.77
249.598	13298.55
249.669	13272.81
249.739	13257.96
249.81	13227.64
249.881	13184.11
249.952	13162.9
250.023	13140.29
250.094	13096.47
250.165	13070.34
250.235	13046.82
250.306	13018.52
250.377	12983.67
250.448	12963.32
250.519	12919.6
250.59	12921.72
250.66	12893.81
250.731	12891.21
250.802	12861.13
250.873	12840.25
250.944	12826.9
251.014	12797.06
251.085	12808.15
251.156	12792.24
251.227	12789.06
251.297	12780.38
251.368	12777.3
251.439	12761.58
251.51	12746.35
251.58	12717.47
251.651	12688.17
251.722	12683.3
251.792	12652.4
251.863	12629.45
251.934	12627.86
252.005	12631.52
252.075	12600.67
252.146	12588.91
252.217	12579.56
252.287	12565.97
252.358	12550.73
252.429	12547.99
252.499	12529.91
252.57	12507.4
252.641	12493.66
252.711	12464.88
252.782	12430.75
252.852	12431.62
252.923	12409.98
252.994	12394.41
253.064	12391.66
253.135	12359.94
253.205	12326.68
253.276	12323.88
253.347	12320.51
253.417	12295.11
253.488	12267.25
253.558	12249.65
253.629	12237.17
253.699	12219.09
253.77	12213.16
253.841	12191.47
253.911	12169.49
253.982	12149.15
254.052	12139.65
254.123	12126.54
254.193	12110.97
254.264	12128.04
254.334	12099.69
254.405	12073.18
254.475	12043.54
254.546	12025.7
254.616	12032.07
254.687	12020.5
254.757	12001.7
254.827	11978.03
254.898	11957.89
254.968	11945.4
255.039	11915.71
255.109	11902.17
255.18	11879.61
255.25	11830.16
255.321	11820.03
255.391	11779.84
255.461	11784.85
255.532	11737.37
255.602	11712.21
255.673	11667.39
255.743	11641.65
255.813	11599.91
255.884	11593.5
255.954	11587.91
256.024	11587.91
256.095	11566.27
256.165	11534.89
256.235	11517.35
256.306	11493.78
256.376	11497.59
256.446	11489.78
256.517	11477.54
256.587	11473.29
256.657	11457.34
256.728	11450.02
256.798	11428.67
256.868	11411.32
256.938	11384.95
257.009	11379.46
257.079	11367.46
257.149	11381.48
257.219	11336.9
257.29	11321.19
257.36	11281.1
257.43	11265.91
257.5	11221.53
257.571	11189.24
257.641	11177.19
257.711	11153.91
257.781	11142.83
257.852	11121.14
257.922	11084.27
257.992	11063.6
258.062	11038.93
258.132	11031.74
258.202	11012.57
258.273	10991.27
258.343	11001.63
258.413	10979.84
258.483	10965.24
258.553	10944.33
258.623	10914.55
258.693	10908.52
258.764	10909.29
258.834	10911.17
258.904	10897.29
258.974	10881.34
259.044	10871.51
259.114	10862.98
259.184	10844.91
259.254	10828.05
259.324	10787.52
259.394	10774.76
259.464	10784.01
259.535	10771.72
259.605	10740.45
259.675	10714.24
259.745	10705.51
259.815	10672.36
259.885	10648.17
259.955	10655.74
260.025	10631.41
260.095	10611.89
260.165	10593.49
260.235	10589.29
260.305	10558.36
260.375	10526.08
260.445	10527.48
260.515	10530.13
260.585	10529.45
260.655	10515.58
260.725	10515.24
260.795	10508.83
260.865	10515.48
260.934	10482.52
261.004	10467.1
261.074	10461.32
261.144	10465.42
261.214	10469.37
261.284	10456.79
261.354	10449.47
261.424	10421.14
261.494	10421.81
261.564	10413.28
261.634	10412.8
261.703	10381.2
261.773	10377.1
261.843	10369.54
261.913	10361.73
261.983	10328.49
262.053	10319
