Data from 20250703_urea_0.1M_MAYP1162681_03-21-05-063.txt Node
Date: Fri Jul 04 03:21:05 BST 2025
User: adleo
Spectrometer: MAYP116268
Trigger mode: 0
Integration Time (sec): 1.000000E0
Scans to average: 1
Electric dark correction enabled: true
Nonlinearity correction enabled: true
Boxcar width: 10
XAxis mode: Wavelengths
Number of Pixels in Spectrum: 2068
>>>>>Begin Spectral Data<<<<<
179.565	1301.05
179.642	1358.03
179.718	1408.01
179.795	1446.36
179.871	1479.67
179.948	1502.44
180.024	1527.71
180.101	1551.5
180.177	1567.53
180.254	1592.14
180.33	1616.93
180.407	1677.28
180.483	1781.48
180.56	1879.26
180.636	1969.28
180.712	1951.59
180.789	1963.19
180.865	1973.6
180.942	1984.25
181.018	1997.38
181.095	2014.07
181.171	2020.4
181.248	2023.4
181.324	2036.43
181.4	2046.94
181.477	2060.12
181.553	2072.34
181.63	2092.6
181.706	2109.63
181.782	2118.95
181.859	2117.1
181.935	2121.04
182.011	2119.71
182.088	2133.6
182.164	2154.83
182.24	2169.53
182.317	2180.7
182.393	2176.42
182.469	2192.98
182.546	2207.34
182.622	2211.53
182.698	2203.54
182.775	2214.34
182.851	2229.75
182.927	2222.85
183.003	2217.38
183.08	2211.15
183.156	2220.76
183.232	2214.67
183.308	2204.3
183.385	2211.96
183.461	2234.75
183.537	2236.04
183.613	2248.5
183.69	2241.41
183.766	2229.75
183.842	2240.51
183.918	2248.31
183.995	2259.49
184.071	2265.2
184.147	2257.97
184.223	2246.74
184.299	2261.64
184.375	2254.07
184.452	2260.5
184.528	2316.34
184.604	2329.09
184.68	2342.6
184.756	2351.74
184.832	2360.26
184.908	2365.31
184.985	2364.93
185.061	2344.46
185.137	2354.98
185.213	2341.85
185.289	2341.09
185.365	2333.43
185.441	2328.76
185.517	2342.09
185.593	2342
185.669	2335.67
185.745	2348.18
185.822	2366.26
185.898	2355.79
185.974	2363.5
186.05	2355.41
186.126	2318.32
186.202	2311.37
186.278	2309.75
186.354	2297.71
186.43	2303.57
186.506	2303.14
186.582	2303.04
186.658	2314.22
186.734	2294.33
186.81	2297.57
186.886	2302.33
186.962	2318.13
187.038	2314.42
187.114	2306.75
187.19	2316.22
187.266	2306.66
187.341	2304.71
187.417	2295.81
187.493	2295.47
187.569	2298.95
187.645	2290.43
187.721	2275.06
187.797	2283.91
187.873	2285.81
187.949	2280.44
188.025	2274.63
188.101	2275.53
188.176	2283.19
188.252	2274.82
188.328	2281.52
188.404	2282.76
188.48	2276.39
188.556	2265.82
188.632	2265.34
188.707	2262.63
188.783	2258.63
188.859	2254.26
188.935	2244.64
189.011	2253.4
189.086	2245.88
189.162	2234.6
189.238	2236.55
189.314	2234.79
189.39	2228.23
189.465	2219.04
189.541	2237.89
189.617	2220.47
189.693	2217.86
189.768	2221
189.844	2248.18
189.92	2242.24
189.996	2253.42
190.071	2267.32
190.147	2268.17
190.223	2279.55
190.298	2275.65
190.374	2262.46
190.45	2275.31
190.526	2283.83
190.601	2277.16
190.677	2281.3
190.753	2311.35
190.828	2314.49
190.904	2331.15
190.98	2345.57
191.055	2359.71
191.131	2348.09
191.207	2370.55
191.282	2378.74
191.358	2367.55
191.433	2349.5
191.509	2360.78
191.585	2353.83
191.66	2355.73
191.736	2363.59
191.811	2354.5
191.887	2371.16
191.963	2394.68
192.038	2401.63
192.114	2400.91
192.189	2407.19
192.265	2405.39
192.34	2383.67
192.416	2381.67
192.491	2377
192.567	2381.29
192.642	2381.53
192.718	2382.96
192.793	2370.01
192.869	2367.58
192.944	2369.15
193.02	2378.05
193.095	2382.72
193.171	2385.86
193.246	2386.24
193.322	2382
193.397	2382.53
193.473	2366.1
193.548	2345.72
193.624	2349.2
193.699	2349.82
193.775	2364.49
193.85	2364.68
193.925	2374.63
194.001	2375.86
194.076	2372.29
194.152	2361.72
194.227	2355.01
194.302	2343.88
194.378	2348.02
194.453	2343.31
194.529	2356.35
194.604	2342.4
194.679	2333.17
194.755	2320.7
194.83	2329.89
194.905	2328.66
194.981	2335.89
195.056	2329.52
195.131	2338.32
195.207	2335.75
195.282	2325.66
195.357	2307.81
195.433	2324.94
195.508	2312.56
195.583	2315.7
195.659	2326.99
195.734	2333.46
195.809	2335.18
195.884	2346.45
195.96	2345.64
196.035	2363.3
196.11	2357.97
196.185	2371.54
196.261	2378.77
196.336	2407.28
196.411	2390.86
196.486	2394.43
196.561	2388.9
196.637	2398.66
196.712	2417.19
196.787	2422.9
196.862	2439.56
196.937	2450.46
197.013	2456.99
197.088	2468.65
197.163	2492.84
197.238	2514.29
197.313	2514.15
197.388	2523.91
197.464	2556.78
197.539	2568.73
197.614	2558.25
197.689	2574.68
197.764	2591.17
197.839	2612.55
197.914	2607.31
197.989	2633.12
198.065	2650.6
198.14	2701.46
198.215	2728.51
198.29	2736.81
198.365	2749.81
198.44	2760.87
198.515	2790.22
198.59	2806.52
198.665	2832.73
198.74	2840.02
198.815	2835.64
198.89	2857.56
198.965	2888.49
199.04	2882.77
199.115	2903.41
199.19	2949.97
199.265	2950.87
199.34	2963.98
199.415	3000.33
199.49	3024.25
199.565	3035.12
199.64	3061.06
199.715	3058.25
199.79	3068.45
199.865	3077.42
199.94	3076.84
200.015	3107.17
200.09	3114.47
200.165	3122.58
200.24	3130.64
200.315	3176.42
200.39	3197.98
200.464	3207.28
200.539	3210.76
200.614	3227.64
200.689	3250.35
200.764	3259.94
200.839	3279.92
200.914	3281.54
200.989	3270.89
201.063	3284.3
201.138	3267.19
201.213	3266.9
201.288	3246.58
201.363	3252.45
201.438	3254.98
201.512	3272.1
201.587	3255.5
201.662	3257.79
201.737	3270.24
201.812	3277.16
201.886	3240.68
201.961	3246.17
202.036	3235.06
202.111	3234.15
202.186	3204.17
202.26	3186.09
202.335	3164.42
202.41	3156.79
202.485	3142.73
202.559	3120.46
202.634	3094.13
202.709	3105.09
202.784	3086.49
202.858	3090.88
202.933	3072.19
203.008	3069.8
203.082	3050.16
203.157	3052.92
203.232	3010.79
203.306	2992.8
203.381	2964.29
203.456	2948.79
203.53	2934.28
203.605	2918.89
203.68	2898.91
203.754	2900.48
203.829	2895.66
203.904	2881.13
203.978	2883.32
204.053	2897.62
204.127	2899.86
204.202	2913.12
204.277	2907.35
204.351	2916.41
204.426	2923.51
204.5	2934.1
204.575	2916.08
204.65	2947.75
204.724	2965.3
204.799	3000.52
204.873	3021.37
204.948	3050.22
205.022	3066.24
205.097	3090.54
205.171	3135.61
205.246	3183.14
205.32	3220.38
205.395	3257.75
205.469	3290.85
205.544	3339.16
205.618	3366.66
205.693	3424.42
205.767	3462.85
205.842	3537.96
205.916	3581.45
205.991	3632.12
206.065	3693.21
206.14	3768.5
206.214	3825.67
206.289	3879.53
206.363	3954.75
206.438	4025.09
206.512	4098.43
206.586	4184.37
206.661	4260.3
206.735	4310.49
206.81	4381.99
206.884	4472.91
206.958	4535.2
207.033	4635.14
207.107	4722.49
207.181	4842.54
207.256	4921.27
207.33	5024.37
207.405	5122.81
207.479	5235.96
207.553	5328.52
207.628	5408.34
207.702	5509.56
207.776	5600.65
207.851	5697.59
207.925	5812.58
207.999	5907.32
208.073	6006.91
208.148	6118.85
208.222	6209.99
208.296	6350.57
208.371	6476.96
208.445	6599.65
208.519	6743.78
208.593	6862.99
208.668	6969.79
208.742	7076.64
208.816	7190.97
208.89	7323.21
208.965	7436.53
209.039	7559.66
209.113	7689.89
209.187	7820.53
209.261	7933.08
209.336	8063.65
209.41	8201.89
209.484	8319.63
209.558	8460.56
209.632	8588.3
209.707	8716.6
209.781	8863.44
209.855	8996.68
209.929	9132.95
210.003	9248.3
210.077	9363.28
210.151	9522.25
210.226	9667.25
210.3	9808.62
210.374	9947.12
210.448	10053.86
210.522	10178.34
210.596	10293.03
210.67	10419.49
210.744	10578.42
210.818	10715.09
210.892	10842.97
210.966	10946.08
211.041	11074.69
211.115	11169.62
211.189	11296.88
211.263	11418.67
211.337	11524.31
211.411	11647.74
211.485	11744.28
211.559	11864.34
211.633	11959.04
211.707	12032.36
211.781	12148.04
211.855	12217.02
211.929	12307.98
212.003	12395.75
212.077	12501.36
212.151	12623.56
212.225	12730.67
212.299	12817.1
212.373	12912.11
212.447	13012.48
212.52	13143.45
212.594	13243.48
212.668	13355.17
212.742	13440.93
212.816	13524.61
212.89	13608.01
212.964	13691.26
213.038	13778.61
213.112	13883.75
213.186	13997.66
213.26	14064.04
213.333	14097.88
213.407	14189.86
213.481	14277.83
213.555	14370.34
213.629	14445.15
213.703	14504.49
213.777	14589.96
213.85	14651.61
213.924	14767.25
213.998	14850.21
214.072	14922.13
214.146	14982.77
214.219	15061.1
214.293	15135.86
214.367	15220.99
214.441	15315.65
214.515	15380.34
214.588	15437.75
214.662	15470.43
214.736	15523.21
214.81	15609.78
214.883	15700.59
214.957	15762.29
215.031	15823.51
215.105	15871.18
215.178	15925.89
215.252	15993.51
215.326	16034.04
215.4	16083.79
215.473	16098.2
215.547	16133.62
215.621	16182.35
215.694	16252.09
215.768	16285.64
215.842	16329.59
215.915	16372.73
215.989	16403.04
216.063	16442.23
216.136	16504.79
216.21	16562.33
216.284	16635.21
216.357	16687.59
216.431	16744.08
216.504	16809.91
216.578	16889.15
216.652	16967.22
216.725	17028.29
216.799	17086.02
216.873	17146.94
216.946	17211.9
217.02	17261.98
217.093	17315.57
217.167	17340.53
217.24	17372.87
217.314	17422.56
217.387	17465.21
217.461	17509.74
217.535	17575.76
217.608	17629.4
217.682	17667.52
217.755	17733.98
217.829	17760.24
217.902	17811.38
217.976	17849.74
218.049	17889.06
218.123	17917.73
218.196	17961.64
218.27	17991.66
218.343	18025.3
218.417	18067.08
218.49	18113.97
218.563	18171.7
218.637	18220.76
218.71	18295.36
218.784	18347.16
218.857	18413.37
218.931	18476.12
219.004	18521.13
219.077	18570.43
219.151	18616.21
219.224	18663.77
219.298	18701.99
219.371	18760.78
219.444	18794.8
219.518	18846.07
219.591	18885.35
219.665	18956.52
219.738	18996.86
219.811	19038.45
219.885	19086.97
219.958	19135.21
220.031	19168.41
220.105	19221.91
220.178	19273.28
220.251	19304.79
220.325	19350.72
220.398	19387.15
220.471	19432.01
220.544	19482.71
220.618	19511.87
220.691	19561.55
220.764	19602.46
220.838	19648.63
220.911	19692.19
220.984	19758.26
221.057	19800.81
221.131	19852.96
221.204	19858.5
221.277	19924.52
221.35	19993.39
221.424	20027.41
221.497	20066.35
221.57	20107.17
221.643	20149.33
221.716	20189.62
221.79	20224.9
221.863	20263.5
221.936	20295.45
222.009	20322.73
222.082	20372.9
222.155	20398.87
222.229	20444.56
222.302	20479.02
222.375	20506.39
222.448	20546.01
222.521	20562.01
222.594	20587.5
222.667	20603.02
222.74	20647.5
222.814	20669.72
222.887	20693.09
222.96	20729.05
223.033	20769.67
223.106	20805.39
223.179	20835.03
223.252	20860.14
223.325	20886.16
223.398	20899.9
223.471	20925.25
223.544	20957.2
223.617	20963.37
223.69	20995.9
223.763	21006.12
223.837	21032.87
223.91	21057.16
223.983	21058.8
224.056	21074.17
224.129	21096.05
224.202	21122.9
224.275	21144.92
224.348	21150.27
224.42	21152.83
224.493	21152.59
224.566	21154.66
224.639	21176.92
224.712	21184.93
224.785	21195.34
224.858	21202.61
224.931	21212.21
225.004	21222.91
225.077	21233.51
225.15	21218.81
225.223	21229.94
225.296	21264.31
225.369	21254.38
225.442	21256.84
225.514	21269.8
225.587	21279.54
225.66	21294.05
225.733	21304.65
225.806	21313.33
225.879	21315.93
225.952	21311.98
226.025	21337.28
226.097	21361.96
226.17	21365.09
226.243	21345.09
226.316	21358.59
226.389	21367.65
226.461	21390.49
226.534	21406.69
226.607	21406.35
226.68	21443.32
226.753	21446.89
226.825	21421.29
226.898	21446.79
226.971	21452.57
227.044	21453.25
227.117	21466.84
227.189	21477.44
227.262	21489.44
227.335	21499.71
227.407	21492.53
227.48	21512.77
227.553	21514.27
227.626	21505.54
227.698	21502.36
227.771	21515.42
227.844	21497.73
227.916	21499.71
227.989	21478.84
228.062	21470.55
228.134	21486.99
228.207	21486.07
228.28	21481.54
228.352	21476.43
228.425	21474.89
228.498	21486.5
228.57	21478.36
228.643	21493.98
228.716	21479.52
228.788	21467.03
228.861	21450.5
228.934	21469.1
229.006	21450.74
229.079	21446.4
229.151	21435.12
229.224	21418.93
229.296	21425.72
229.369	21452.19
229.442	21470.89
229.514	21462.31
229.587	21468.09
229.659	21456.57
229.732	21450.6
229.804	21456.57
229.877	21485.2
229.949	21498.85
230.022	21515.19
230.094	21510.66
230.167	21495.52
230.239	21482.03
230.312	21472.58
230.384	21494.7
230.457	21496.63
230.529	21505.74
230.602	21507.76
230.674	21508.05
230.747	21514.37
230.819	21519.67
230.892	21476.05
230.964	21472
231.037	21477.69
231.109	21470.6
231.181	21471.04
231.254	21448.09
231.326	21434.74
231.399	21416.14
231.471	21384.95
231.544	21338.34
231.616	21343.26
231.688	21337.38
231.761	21327.35
231.833	21322.1
231.905	21277.08
231.978	21263.25
232.05	21241.85
232.122	21229.41
232.195	21211.1
232.267	21209.36
232.339	21179.63
232.412	21185.07
232.484	21160.01
232.556	21140.01
232.629	21139.96
232.701	21130.8
232.773	21128.01
232.846	21106.99
232.918	21089.3
232.99	21085.79
233.062	21082.56
233.135	21072.29
233.207	21040.58
233.279	21033.88
233.351	21031.81
233.424	21014.46
233.496	20981.54
233.568	20997.97
233.64	20959.75
233.713	20947.22
233.785	20920.23
233.857	20911.08
233.929	20880.43
234.001	20879.56
234.074	20874.3
234.146	20839.07
234.218	20817.05
234.29	20790.25
234.362	20757.19
234.434	20725.96
234.507	20687.41
234.579	20659.74
234.651	20627.79
234.723	20609.53
234.795	20590.15
234.867	20547.11
234.939	20539.26
235.012	20518.97
235.084	20495.88
235.156	20488.94
235.228	20450.73
235.3	20426.58
235.372	20406.97
235.444	20397.81
235.516	20342
235.588	20320.32
235.66	20286.39
235.732	20246.87
235.804	20288.51
235.876	20283.45
235.948	20277.28
236.02	20253.62
236.092	20221.57
236.164	20203.41
236.236	20179.89
236.308	20155.41
236.38	20141.91
236.452	20102.45
236.524	20078.3
236.596	20053.58
236.668	20027.89
236.74	20012.95
236.812	19996.28
236.884	19972.81
236.956	19947.8
237.028	19917.82
237.1	19875.08
237.172	19872
237.244	19857.15
237.316	19775.56
237.388	19733.44
237.46	19688.53
237.532	19671.47
237.604	19627.62
237.675	19610.27
237.747	19586.32
237.819	19544.44
237.891	19510.52
237.963	19476.93
238.035	19445.6
238.107	19370.81
238.178	19352.5
238.25	19317.42
238.322	19300.5
238.394	19239.25
238.466	19200.03
238.538	19179.02
238.609	19152.27
238.681	19100.8
238.753	19070.06
238.825	19047.07
238.897	19024.81
238.968	19016.42
239.04	18988.23
239.112	18987.37
239.184	18937.88
239.255	18904.62
239.327	18869.88
239.399	18842.17
239.471	18819.42
239.542	18789.93
239.614	18785.74
239.686	18724.78
239.758	18700.49
239.829	18659
239.901	18638.91
239.973	18607.49
240.044	18580.5
240.116	18548.21
240.188	18513.08
240.259	18475.11
240.331	18431.11
240.403	18406.1
240.474	18356.27
240.546	18307.07
240.618	18262.11
240.689	18224.18
240.761	18188.33
240.833	18178.01
240.904	18138.88
240.976	18110.79
241.048	18079.8
241.119	18051.85
241.191	18030.36
241.262	18011.61
241.334	17971.32
241.405	17947.52
241.477	17907.61
241.549	17864.58
241.62	17838.56
241.692	17804.68
241.763	17780.58
241.835	17752.15
241.906	17715.43
241.978	17667.52
242.049	17657.11
242.121	17636.49
242.192	17621.26
242.264	17575.38
242.335	17521.69
242.407	17488.92
242.478	17446.13
242.55	17416.3
242.621	17374.37
242.693	17336.97
242.764	17295.86
242.836	17257.6
242.907	17225.55
242.979	17196.44
243.05	17167.96
243.122	17142.61
243.193	17116.87
243.264	17061.79
243.336	17020.72
243.407	16999.42
243.479	16983.81
243.55	16942.17
243.622	16907.56
243.693	16867.37
243.764	16851.51
243.836	16811.32
243.907	16770.59
243.978	16736.42
244.05	16709.29
244.121	16655.79
244.192	16629.67
244.264	16577.04
244.335	16546.67
244.407	16495.2
244.478	16465.17
244.549	16430.23
244.62	16376.44
244.692	16339.81
244.763	16317.06
244.834	16280.34
244.906	16232.81
244.977	16203.41
245.048	16187.12
245.119	16149.05
245.191	16102.54
245.262	16041.71
245.333	16020.4
245.405	15999.82
245.476	15971.39
245.547	15938.9
245.618	15923.72
245.689	15896.05
245.761	15875.28
245.832	15848.48
245.903	15826.5
245.974	15798.93
246.045	15764.23
246.117	15752.95
246.188	15714.24
246.259	15671.15
246.33	15636.69
246.401	15603.48
246.473	15556.82
246.544	15519.32
246.615	15500.52
246.686	15465.57
246.757	15454.87
246.828	15420.65
246.899	15405.76
246.97	15353.79
247.042	15314.12
247.113	15290.41
247.184	15276.86
247.255	15239.17
247.326	15204.37
247.397	15176.36
247.468	15150.38
247.539	15118.13
247.61	15071.33
247.681	15051.95
247.752	15035.22
247.823	14994.83
247.894	14969.33
247.965	14931.78
248.037	14888.88
248.108	14841.74
248.179	14819.9
248.25	14792.76
248.321	14765.28
248.392	14721.61
248.463	14720.6
248.534	14689.02
248.605	14667.19
248.675	14629.01
248.746	14608.57
248.817	14583.84
248.888	14562.63
248.959	14515.15
249.03	14500.26
249.101	14469.16
249.172	14432.67
249.243	14376.85
249.314	14369.33
249.385	14344.41
249.456	14318.33
249.527	14290.08
249.598	14268.58
249.669	14241.3
249.739	14203.36
249.81	14181.14
249.881	14137.94
249.952	14106.61
250.023	14081.11
250.094	14031.07
250.165	13995.88
250.235	13970.57
250.306	13945.07
250.377	13899.71
250.448	13873.87
250.519	13816.36
250.59	13816.65
250.66	13787.2
250.731	13788.74
250.802	13763.09
250.873	13735.28
250.944	13716.67
251.014	13688.52
251.085	13684.32
251.156	13663.06
251.227	13662.87
251.297	13654.15
251.368	13650.63
251.439	13640.5
251.51	13626.47
251.58	13599.48
251.651	13569.88
251.722	13555.32
251.792	13517.19
251.863	13489.66
251.934	13488.07
252.005	13495.59
252.075	13464.36
252.146	13451.92
252.217	13431.91
252.287	13417.84
252.358	13397.54
252.429	13394.79
252.499	13364.86
252.57	13341.57
252.641	13329.91
252.711	13301.95
252.782	13267.43
252.852	13260.83
252.923	13236.39
252.994	13218.31
253.064	13210.5
253.135	13174.92
253.205	13144.84
253.276	13136.46
253.347	13142.38
253.417	13102.9
253.488	13075.04
253.558	13045.3
253.629	13019.27
253.699	13006.11
253.77	12983.69
253.841	12956.74
253.911	12936.69
253.982	12913.31
254.052	12897.26
254.123	12872.05
254.193	12847.12
254.264	12864.77
254.334	12824.71
254.405	12786.05
254.475	12748.45
254.546	12721.36
254.616	12723.77
254.687	12704.43
254.757	12687.71
254.827	12656.47
254.898	12641.48
254.968	12619.35
255.039	12590.91
255.109	12580.02
255.18	12551
255.25	12508.82
255.321	12497.88
255.391	12455.94
255.461	12464.38
255.532	12418.44
255.602	12394.96
255.673	12352.59
255.743	12306.89
255.813	12263.75
255.884	12261.24
255.954	12246.69
256.024	12245.82
256.095	12219.16
256.165	12186.1
256.235	12174.24
256.306	12148.16
256.376	12140.93
256.446	12132.69
256.517	12124.4
256.587	12116.83
256.657	12091.91
256.728	12078.12
256.798	12060.24
256.868	12035.56
256.938	12006.01
257.009	11997.82
257.079	11987.5
257.149	12002.3
257.219	11970.1
257.29	11960.61
257.36	11917.86
257.43	11911.88
257.5	11868.84
257.571	11851.24
257.641	11837.65
257.711	11798.7
257.781	11787.81
257.852	11776.34
257.922	11738.26
257.992	11717.63
258.062	11692.33
258.132	11686.54
258.202	11667.6
258.273	11647.12
258.343	11649.19
258.413	11625.24
258.483	11604.27
258.553	11571.16
258.623	11541.37
258.693	11527.73
258.764	11526.43
258.834	11529.9
258.904	11510.28
258.974	11486.33
259.044	11467.05
259.114	11458.57
259.184	11448.93
259.254	11430.42
259.324	11389.65
259.394	11375.96
259.464	11373.99
259.535	11347
259.605	11322.37
259.675	11296.59
259.745	11288.2
259.815	11259.19
259.885	11230.37
259.955	11245.36
260.025	11221.36
260.095	11200.15
260.165	11191.62
260.235	11195.24
260.305	11166.03
260.375	11139.19
260.445	11146.47
260.515	11138.18
260.585	11128.88
260.655	11109.55
260.725	11101.79
260.795	11100.35
260.865	11108.44
260.934	11074.42
261.004	11072.44
261.074	11055.48
261.144	11062.13
261.214	11049.65
261.284	11034.28
261.354	11031.68
261.424	10993.75
261.494	11003.53
261.564	10991.14
261.634	10980.01
261.703	10936.06
261.773	10922.95
261.843	10911.78
261.913	10900.07
