Data from 20250703_urea_0.1M_MAYP1162681_08-41-05-511.txt Node
Date: Fri Jul 04 08:41:05 BST 2025
User: adleo
Spectrometer: MAYP116268
Trigger mode: 0
Integration Time (sec): 1.000000E0
Scans to average: 1
Electric dark correction enabled: true
Nonlinearity correction enabled: true
Boxcar width: 10
XAxis mode: Wavelengths
Number of Pixels in Spectrum: 2068
>>>>>Begin Spectral Data<<<<<
179.565	1226.51
179.642	1283.74
179.718	1332.25
179.795	1371.82
179.871	1406.06
179.948	1423.48
180.024	1443.54
180.101	1465.15
180.177	1477.86
180.254	1500.98
180.33	1521.71
180.407	1575.36
180.483	1672.66
180.56	1764.93
180.636	1849.86
180.712	1835.74
180.789	1845.01
180.865	1856.51
180.942	1867.39
181.018	1878.37
181.095	1890.36
181.171	1896.97
181.248	1895.97
181.324	1910.33
181.4	1917.56
181.477	1928.26
181.553	1943.28
181.63	1964.86
181.706	1982.36
181.782	1991.96
181.859	1990.16
181.935	1996.44
182.011	1993.53
182.088	2011.13
182.164	2031.59
182.24	2046.19
182.317	2057.07
182.393	2057.41
182.469	2074.43
182.546	2086.7
182.622	2090.13
182.698	2084.66
182.775	2094.88
182.851	2112.01
182.927	2102.59
183.003	2099.78
183.08	2091.79
183.156	2100.12
183.232	2095.31
183.308	2083.71
183.385	2092.88
183.461	2110.91
183.537	2113.86
183.613	2126.65
183.69	2118.38
183.766	2106.05
183.842	2113.71
183.918	2118.56
183.995	2128.69
184.071	2129.22
184.147	2121.04
184.223	2110.77
184.299	2125.51
184.375	2112.58
184.452	2119.91
184.528	2170.82
184.604	2178.81
184.68	2192.55
184.756	2200.17
184.832	2206.16
184.908	2208.68
184.985	2206.68
185.061	2191.6
185.137	2201.17
185.213	2190.32
185.289	2188.99
185.365	2182.14
185.441	2180.91
185.517	2191.95
185.593	2190.57
185.669	2188.66
185.745	2202.65
185.822	2221.53
185.898	2211.06
185.974	2222.14
186.05	2210.39
186.126	2173.94
186.202	2167.66
186.278	2163.72
186.354	2153.1
186.43	2161.43
186.506	2162.05
186.582	2163.86
186.658	2170.33
186.734	2149.25
186.81	2152.11
186.886	2154.96
186.962	2166.66
187.038	2162.24
187.114	2154.81
187.19	2162.52
187.266	2152.06
187.341	2151.35
187.417	2143.07
187.493	2142.12
187.569	2144.26
187.645	2141.4
187.721	2130.51
187.797	2138.59
187.873	2142.97
187.949	2139.5
188.025	2131.17
188.101	2134.4
188.176	2139.64
188.252	2134.79
188.328	2142.49
188.404	2144.72
188.48	2142.11
188.556	2135.73
188.632	2133.97
188.707	2136.02
188.783	2131.88
188.859	2124.7
188.935	2115.09
189.011	2122.94
189.086	2120.32
189.162	2112.66
189.238	2109.05
189.314	2107.39
189.39	2099.82
189.465	2093.26
189.541	2109.15
189.617	2090.7
189.693	2085.61
189.768	2084.8
189.844	2110.73
189.92	2102.46
189.996	2108.79
190.071	2119.82
190.147	2116.64
190.223	2127.82
190.298	2120.49
190.374	2108.65
190.45	2124.29
190.526	2134.05
190.601	2127.96
190.677	2128.62
190.753	2157.08
190.828	2161.03
190.904	2177.45
190.98	2191.96
191.055	2199.57
191.131	2190.86
191.207	2214.55
191.282	2224.92
191.358	2217.4
191.433	2201.98
191.509	2216.63
191.585	2212.73
191.66	2212.68
191.736	2223.29
191.811	2212.49
191.887	2228.29
191.963	2252.46
192.038	2258.07
192.114	2257.41
192.189	2260.6
192.265	2257.22
192.34	2236.03
192.416	2235.23
192.491	2229.32
192.567	2232.47
192.642	2237.89
192.718	2238.99
192.793	2227.23
192.869	2221.14
192.944	2223.52
193.02	2230.56
193.095	2231.52
193.171	2236.51
193.246	2237.46
193.322	2234.37
193.397	2233.52
193.473	2222.19
193.548	2202.01
193.624	2205.34
193.699	2202.82
193.775	2219.1
193.85	2218.91
193.925	2227
194.001	2228.04
194.076	2222.33
194.152	2212.86
194.227	2205.68
194.302	2194.02
194.378	2198.02
194.453	2196.74
194.529	2210.44
194.604	2198.64
194.679	2192.64
194.755	2175.14
194.83	2184.28
194.905	2181.71
194.981	2193.89
195.056	2184.76
195.131	2193.42
195.207	2192.89
195.282	2182.24
195.357	2165.06
195.433	2184.04
195.508	2172.14
195.583	2175.9
195.659	2188.23
195.734	2198.17
195.809	2196.03
195.884	2203.88
195.96	2204.78
196.035	2220.87
196.11	2216.92
196.185	2225.15
196.261	2230.09
196.336	2260.74
196.411	2247.98
196.486	2251.88
196.561	2244.41
196.637	2253.26
196.712	2270.11
196.787	2275.49
196.862	2293.57
196.937	2301.37
197.013	2304.04
197.088	2315.27
197.163	2337.07
197.238	2354.17
197.313	2354.08
197.388	2367.83
197.464	2400.4
197.539	2409.58
197.614	2402.07
197.689	2412.44
197.764	2430.2
197.839	2450.63
197.914	2447.05
197.989	2472.1
198.065	2490.67
198.14	2542.93
198.215	2569.65
198.29	2576.7
198.365	2586.51
198.44	2596.7
198.515	2622.89
198.59	2640.52
198.665	2666.81
198.74	2677.67
198.815	2679.44
198.89	2699.73
198.965	2730.8
199.04	2726.23
199.115	2745.85
199.19	2788.58
199.265	2795.73
199.34	2802.4
199.415	2836.67
199.49	2858.78
199.565	2867.6
199.64	2886.76
199.715	2880.46
199.79	2887.89
199.865	2897.24
199.94	2897.14
200.015	2928.03
200.09	2935.85
200.165	2944.33
200.24	2951.15
200.315	2993.14
200.39	3008.54
200.464	3016.98
200.539	3019.89
200.614	3038.57
200.689	3058.31
200.764	3064.23
200.839	3080.86
200.914	3090.16
200.989	3079.38
201.063	3092.49
201.138	3073.33
201.213	3075.67
201.288	3058.6
201.363	3063.32
201.438	3065.47
201.512	3081.34
201.587	3066.27
201.662	3070.7
201.737	3080.53
201.812	3088.59
201.886	3055.13
201.961	3065.68
202.036	3053.28
202.111	3049.47
202.186	3018.92
202.26	3004.76
202.335	2985.97
202.41	2978.92
202.485	2963.09
202.559	2945.84
202.634	2921
202.709	2931.24
202.784	2915.65
202.858	2918.04
202.933	2899.74
203.008	2894.25
203.082	2877.24
203.157	2879.24
203.232	2841.6
203.306	2825.77
203.381	2798.84
203.456	2777.72
203.53	2760.79
203.605	2747.55
203.68	2729.43
203.754	2730.91
203.829	2723.62
203.904	2711.37
203.978	2713.09
204.053	2726.48
204.127	2722.43
204.202	2730.1
204.277	2727.05
204.351	2732.96
204.426	2738.16
204.5	2748.4
204.575	2728.49
204.65	2759.14
204.724	2770.68
204.799	2798.22
204.873	2812.57
204.948	2834.16
205.022	2849.36
205.097	2867.68
205.171	2906.95
205.246	2943.44
205.32	2972.03
205.395	2999.07
205.469	3021.95
205.544	3059.21
205.618	3079.1
205.693	3131.19
205.767	3160.71
205.842	3224.76
205.916	3263.69
205.991	3300.48
206.065	3352.93
206.14	3417.13
206.214	3458.49
206.289	3503.53
206.363	3568.8
206.438	3627.27
206.512	3689.36
206.586	3762.05
206.661	3823.13
206.735	3863.54
206.81	3929.42
206.884	4005.82
206.958	4061.21
207.033	4146.08
207.107	4221.33
207.181	4317.27
207.256	4381.33
207.33	4474.8
207.405	4554.8
207.479	4642.66
207.553	4726.26
207.628	4784.92
207.702	4878.37
207.776	4954.46
207.851	5033.91
207.925	5130.46
207.999	5207.78
208.073	5293.7
208.148	5382.31
208.222	5465.2
208.296	5585.25
208.371	5688.81
208.445	5790.53
208.519	5913.49
208.593	6008.69
208.668	6092.38
208.742	6187.95
208.816	6276.42
208.89	6380.12
208.965	6474.63
209.039	6581.52
209.113	6694.22
209.187	6811.55
209.261	6895.92
209.336	7013.33
209.41	7128.64
209.484	7222.69
209.558	7345.58
209.632	7445.97
209.707	7552.59
209.781	7663.54
209.855	7770.34
209.929	7880.31
210.003	7978.71
210.077	8066.59
210.151	8206.54
210.226	8336.49
210.3	8461.47
210.374	8575.43
210.448	8677.32
210.522	8778.68
210.596	8880.33
210.67	8972.75
210.744	9111.54
210.818	9234.52
210.892	9342.47
210.966	9425.37
211.041	9528.42
211.115	9609.8
211.189	9725.32
211.263	9830.36
211.337	9919.7
211.411	10020.85
211.485	10095.18
211.559	10195.8
211.633	10284.57
211.707	10344.75
211.781	10441.26
211.855	10492.77
211.929	10575.05
212.003	10632.67
212.077	10730.25
212.151	10823.97
212.225	10924.06
212.299	10997.46
212.373	11071.28
212.447	11148.48
212.52	11266.02
212.594	11360.87
212.668	11451.91
212.742	11514.27
212.816	11595.58
212.89	11676.55
212.964	11758.97
213.038	11850.4
213.112	11937.41
213.186	12032.02
213.26	12084.27
213.333	12113.38
213.407	12192.04
213.481	12269.02
213.555	12356.93
213.629	12414.92
213.703	12470.6
213.777	12542.47
213.85	12594.77
213.924	12701.84
213.998	12777.52
214.072	12841.15
214.146	12898.03
214.219	12968.41
214.293	13041.01
214.367	13104.59
214.441	13182.45
214.515	13235.47
214.588	13275.34
214.662	13306.05
214.736	13354.06
214.81	13429.89
214.883	13498.97
214.957	13547.08
215.031	13603.34
215.105	13647.4
215.178	13697.1
215.252	13756.97
215.326	13798.38
215.4	13837.43
215.473	13848.18
215.547	13882.31
215.621	13922.61
215.694	13973.99
215.768	14005.81
215.842	14045.34
215.915	14092.82
215.989	14121.41
216.063	14166.82
216.136	14212.23
216.21	14268.34
216.284	14335.49
216.357	14386.68
216.431	14439.9
216.504	14503.39
216.578	14576.95
216.652	14639.95
216.725	14693.99
216.799	14748.65
216.873	14794.49
216.946	14850.65
217.02	14898.37
217.093	14950.05
217.167	14977.43
217.24	15011.89
217.314	15066.02
217.387	15109.94
217.461	15149.46
217.535	15206.87
217.608	15238.49
217.682	15294.07
217.755	15348.01
217.829	15375
217.902	15431.3
217.976	15479.36
218.049	15518.88
218.123	15549.73
218.196	15604.54
218.27	15647.15
218.343	15685.56
218.417	15737.42
218.49	15791.6
218.563	15852.72
218.637	15907.28
218.71	15981.7
218.784	16042.48
218.857	16101.47
218.931	16161
219.004	16217.73
219.077	16277.54
219.151	16330.85
219.224	16382.32
219.298	16437.6
219.371	16502.67
219.444	16536.6
219.518	16587.45
219.591	16641.19
219.665	16729.38
219.738	16783.41
219.811	16818.88
219.885	16878.5
219.958	16931.27
220.031	16968.14
220.105	17023.28
220.178	17069.98
220.251	17105.64
220.325	17149.21
220.398	17197.93
220.471	17249.64
220.544	17293.74
220.618	17327.52
220.691	17383.09
220.764	17421.74
220.838	17467.76
220.911	17502.22
220.984	17564.34
221.057	17622.08
221.131	17669.5
221.204	17676.63
221.277	17729.98
221.35	17808.1
221.424	17831.66
221.497	17873.54
221.57	17918.94
221.643	17964.67
221.716	18014.5
221.79	18055.61
221.863	18103.17
221.936	18133.53
222.009	18175.12
222.082	18218.88
222.155	18251.55
222.229	18307.45
222.302	18359.16
222.375	18391.11
222.448	18439.59
222.521	18474.96
222.594	18500.02
222.667	18525.56
222.74	18569.13
222.814	18597.27
222.887	18627.87
222.96	18685.17
223.033	18730.27
223.106	18778.42
223.179	18812.29
223.252	18839.62
223.325	18876.82
223.398	18901.44
223.471	18937.54
223.544	18967.61
223.617	18995.41
223.69	19034.16
223.763	19054.78
223.837	19084.95
223.91	19123.5
223.983	19139.26
224.056	19159.93
224.129	19188.03
224.202	19223.93
224.275	19250.1
224.348	19265.37
224.42	19273.32
224.493	19278.05
224.566	19289.76
224.639	19313.61
224.712	19327.78
224.785	19351.15
224.858	19363.73
224.931	19384.11
225.004	19396.26
225.077	19410.91
225.15	19409.75
225.223	19432.25
225.296	19467.19
225.369	19470.95
225.442	19482.32
225.514	19508.2
225.587	19534.27
225.66	19560.63
225.733	19579.91
225.806	19594.94
225.879	19615.76
225.952	19622.07
226.025	19659.09
226.097	19694.75
226.17	19707.37
226.243	19700.87
226.316	19714.36
226.389	19737.25
226.461	19757.01
226.534	19780.28
226.607	19795.99
226.68	19836.52
226.753	19852.81
226.825	19842.5
226.898	19870.88
226.971	19889.58
227.044	19899.65
227.117	19912.13
227.189	19920.18
227.262	19943.31
227.335	19965.24
227.407	19966.3
227.48	19987.6
227.553	19990.35
227.626	19990.15
227.698	20004.03
227.771	20033.86
227.844	20026.59
227.916	20036.23
227.989	20033.67
228.062	20029.48
228.134	20060.03
228.207	20060.9
228.28	20057.38
228.352	20063.07
228.425	20071.16
228.498	20079.94
228.57	20076.03
228.643	20092.56
228.716	20099.12
228.788	20098.97
228.861	20085.09
228.934	20102.59
229.006	20107.65
229.079	20110.49
229.151	20108.32
229.224	20095.07
229.296	20096.51
229.369	20138.63
229.442	20159.89
229.514	20163.55
229.587	20184.9
229.659	20168.85
229.732	20180.32
229.804	20203.16
229.877	20241.57
229.949	20255.64
230.022	20280.17
230.094	20286.54
230.167	20282.78
230.239	20274.29
230.312	20271.4
230.384	20303.21
230.457	20314.34
230.529	20324.27
230.602	20329.33
230.674	20332.27
230.747	20339.69
230.819	20349.52
230.892	20313.52
230.964	20300.17
231.037	20302.78
231.109	20299.98
231.181	20312.85
231.254	20299.21
231.326	20295.21
231.399	20278.1
231.471	20264.61
231.544	20227.26
231.616	20236.41
231.688	20244.65
231.761	20238.44
231.833	20231.45
231.905	20199.79
231.978	20190.97
232.05	20172.75
232.122	20175.6
232.195	20175.35
232.267	20191.79
232.339	20176.17
232.412	20187.35
232.484	20173.14
232.556	20151.21
232.629	20159.6
232.701	20157.19
232.773	20146.44
232.846	20124.13
232.918	20109.09
232.99	20098.59
233.062	20103.94
233.135	20095.45
233.207	20073.33
233.279	20066.92
233.351	20067.12
233.424	20045.86
233.496	20017.67
233.568	20025.43
233.64	19989.1
233.713	19971.36
233.785	19955.7
233.857	19951.99
233.929	19922.01
234.001	19931.12
234.074	19944.81
234.146	19922.01
234.218	19893.29
234.29	19882.98
234.362	19861.34
234.434	19832.81
234.507	19802.16
234.579	19771.56
234.651	19748.86
234.723	19735.23
234.795	19728.58
234.867	19702.46
234.939	19709.16
235.012	19700.24
235.084	19695.08
235.156	19687.23
235.228	19660.68
235.3	19634.07
235.372	19609.64
235.444	19601.26
235.516	19558.13
235.588	19539.24
235.66	19508.49
235.732	19484.83
235.804	19524.3
235.876	19518.08
235.948	19523.48
236.02	19509.41
236.092	19490.57
236.164	19467.43
236.236	19435.39
236.308	19407.53
236.38	19391.63
236.452	19363.39
236.524	19333.9
236.596	19322.82
236.668	19315.25
236.74	19301.9
236.812	19282.34
236.884	19270.05
236.956	19253.42
237.028	19229.09
237.1	19185.76
237.172	19180.17
237.244	19171.93
237.316	19101.05
237.388	19065.48
237.46	19013.63
237.532	19002.26
237.604	18964.14
237.675	18955.46
237.747	18946.45
237.819	18911.37
237.891	18882.12
237.963	18858.75
238.035	18837.45
238.107	18770.8
238.178	18748.34
238.25	18710.61
238.322	18699.91
238.394	18654.76
238.466	18616.4
238.538	18588.16
238.609	18567.82
238.681	18520.94
238.753	18480.26
238.825	18456.94
238.897	18432.84
238.968	18436.46
239.04	18393.23
239.112	18397.86
239.184	18357.19
239.255	18324.18
239.327	18304.03
239.399	18279.41
239.471	18255.84
239.542	18238.11
239.614	18221.82
239.686	18165.53
239.758	18147.56
239.829	18105.1
239.901	18086.21
239.973	18059.03
240.044	18038.12
240.116	18015.13
240.188	17986.99
240.259	17967.37
240.331	17928.82
240.403	17908.82
240.474	17851.81
240.546	17818.51
240.618	17767.86
240.689	17732.29
240.761	17695.67
240.833	17680.73
240.904	17653.93
240.976	17605.4
241.048	17567.91
241.119	17541.5
241.191	17519.38
241.262	17512.68
241.334	17481.74
241.405	17455.43
241.477	17423.33
241.549	17380.2
241.62	17347.86
241.692	17318.99
241.763	17292.92
241.835	17257.4
241.906	17223.24
241.978	17184.92
242.049	17165.31
242.121	17140.2
242.192	17126.75
242.264	17082.46
242.335	17030.41
242.407	16999.47
242.478	16964.24
242.55	16927.8
242.621	16889.39
242.693	16844.86
242.764	16791.51
242.836	16755.31
242.907	16720.47
242.979	16685.58
243.05	16666.15
243.122	16646.83
243.193	16615.31
243.264	16559.01
243.336	16529.47
243.407	16505.47
243.479	16489.61
243.55	16462.09
243.622	16441.08
243.693	16398.62
243.764	16386.81
243.836	16343.81
243.907	16304.49
243.978	16277.83
244.05	16264.58
244.121	16217.05
244.192	16204.76
244.264	16162.93
244.335	16129
244.407	16082.48
244.478	16062.92
244.549	16026.67
244.62	15973.89
244.692	15942.76
244.763	15922.75
244.834	15880.53
244.906	15838.89
244.977	15812.91
245.048	15795.27
245.119	15746.54
245.191	15708.31
245.262	15649.32
245.333	15639.92
245.405	15610.27
245.476	15584.87
245.547	15541.44
245.618	15526.84
245.689	15491.02
245.761	15467.45
245.832	15424.75
245.903	15407.59
245.974	15374.91
246.045	15338.8
246.117	15326.46
246.188	15283.32
246.259	15236.81
246.33	15208.61
246.401	15174.58
246.473	15129.17
246.544	15093.41
246.615	15081.79
246.686	15054.89
246.757	15045.35
246.828	15000.33
246.899	14990.78
246.97	14938.53
247.042	14905.99
247.113	14881.07
247.184	14869.79
247.255	14831.52
247.326	14815.51
247.397	14787.41
247.468	14759.98
247.539	14738.87
247.61	14696.5
247.681	14677.94
247.752	14658.66
247.823	14623.9
247.894	14595.99
247.965	14551.54
248.037	14510.33
248.108	14453.01
248.179	14420.09
248.25	14388.85
248.321	14372.99
248.392	14327.05
248.463	14323.92
248.534	14291.62
248.605	14270.65
248.675	14237.15
248.746	14213.1
248.817	14192.08
248.888	14170.53
248.959	14120.78
249.03	14094.9
249.101	14065.01
249.172	14023.02
249.243	13978
249.314	13969.99
249.385	13949.51
249.456	13938.9
249.527	13912
249.598	13906.12
249.669	13871.03
249.739	13845.43
249.81	13819.78
249.881	13771.24
249.952	13746.7
250.023	13714.02
250.094	13671.6
250.165	13633.03
250.235	13597.36
250.306	13567.37
250.377	13521.72
250.448	13503.93
250.519	13447.1
250.59	13432.73
250.66	13409.26
250.731	13413.31
250.802	13382.21
250.873	13357.63
250.944	13333.04
251.014	13301.76
251.085	13294.48
251.156	13285.08
251.227	13280.45
251.297	13266.13
251.368	13265.94
251.439	13248.58
251.51	13249.74
251.58	13218.36
251.651	13194.21
251.722	13189.34
251.792	13137.66
251.863	13104.88
251.934	13102.62
252.005	13124.02
252.075	13105.6
252.146	13100.06
252.217	13083.43
252.287	13064.82
252.358	13032.48
252.429	13027.17
252.499	12995.5
252.57	12973.86
252.641	12958.09
252.711	12926.61
252.782	12893.26
252.852	12886.07
252.923	12861.73
252.994	12836.76
253.064	12827.12
253.135	12789.71
253.205	12767.34
253.276	12780.7
253.347	12787.44
253.417	12748.11
253.488	12720.87
253.558	12688.14
253.629	12665.92
253.699	12642.59
253.77	12634.49
253.841	12614.05
253.911	12591.97
253.982	12577.03
254.052	12565.8
254.123	12540.59
254.193	12515.76
254.264	12531.72
254.334	12499.66
254.405	12465.77
254.475	12438.88
254.546	12414.87
254.616	12415.06
254.687	12398
254.757	12375.2
254.827	12345.99
254.898	12333.31
254.968	12309.64
255.039	12288.05
255.109	12277.06
255.18	12243.89
255.25	12196.7
255.321	12184.89
255.391	12147.92
255.461	12150.67
255.532	12102.66
255.602	12083.62
255.673	12053.16
255.743	12019.85
255.813	11976.22
255.884	11970.06
255.954	11952.08
256.024	11946.15
256.095	11927.69
256.165	11895.58
256.235	11880.21
256.306	11853.6
256.376	11847.53
256.446	11838.37
256.517	11821.4
256.587	11803.47
256.657	11788.53
256.728	11777.25
256.798	11761.11
256.868	11745.68
256.938	11717.68
257.009	11705.97
257.079	11686.06
257.149	11691.75
257.219	11651.84
257.29	11635.36
257.36	11592.66
257.43	11580.8
257.5	11545.09
257.571	11521.13
257.641	11508.21
257.711	11474.91
257.781	11462.43
257.852	11441.51
257.922	11399.96
257.992	11383.96
258.062	11363.09
258.132	11352.06
258.202	11325.94
258.273	11305.65
258.343	11309.94
258.413	11281.79
258.483	11259.28
258.553	11234.66
258.623	11199.72
258.693	11185.74
258.764	11186.66
258.834	11189.35
258.904	11172.92
258.974	11147.62
259.044	11133.74
259.114	11119.62
259.184	11102.9
259.254	11081.07
259.324	11046.18
259.394	11038.23
259.464	11032.97
259.535	11015.82
259.605	10986.57
259.675	10962.04
259.745	10953.03
259.815	10914.52
259.885	10894.62
259.955	10907.1
260.025	10879.98
260.095	10867.69
260.165	10859.88
260.235	10860.17
260.305	10837.62
260.375	10806.63
260.445	10811.16
260.515	10810.44
260.585	10803.98
260.655	10794.49
260.725	10786.44
260.795	10778.44
260.865	10775.02
260.934	10753.05
261.004	10743.36
261.074	10736.33
261.144	10738.83
261.214	10733.2
261.284	10715.9
261.354	10712.09
261.424	10685.68
261.494	10692.86
261.564	10675.56
261.634	10665.88
261.703	10629.02
261.773	10618.9
261.843	10615.09
261.913	10591.48
