Data from 20250703_urea_0.1M_MAYP1162681_14-21-04-822.txt Node
Date: Thu Jul 03 14:21:04 BST 2025
User: adleo
Spectrometer: MAYP116268
Trigger mode: 0
Integration Time (sec): 1.000000E0
Scans to average: 1
Electric dark correction enabled: true
Nonlinearity correction enabled: true
Boxcar width: 10
XAxis mode: Wavelengths
Number of Pixels in Spectrum: 2068
>>>>>Begin Spectral Data<<<<<
179.565	1254.8
179.642	1313.94
179.718	1357.85
179.795	1398.33
179.871	1432.42
179.948	1450.95
180.024	1473.77
180.101	1499.15
180.177	1514.24
180.254	1537.2
180.33	1561.21
180.407	1619.76
180.483	1720.67
180.56	1815.32
180.636	1902.44
180.712	1887.5
180.789	1898.49
180.865	1915.12
180.942	1920.59
181.018	1930.57
181.095	1948.5
181.171	1953.5
181.248	1953.92
181.324	1970.33
181.4	1980.03
181.477	1991.59
181.553	2008.66
181.63	2027.78
181.706	2044.38
181.782	2055.07
181.859	2053.31
181.935	2058.31
182.011	2056.88
182.088	2072.15
182.164	2091.75
182.24	2105.35
182.317	2116.81
182.393	2115
182.469	2127.13
182.546	2144.16
182.622	2147.54
182.698	2140.64
182.775	2150.68
182.851	2165.52
182.927	2157.95
183.003	2151.68
183.08	2147.06
183.156	2155.63
183.232	2152.29
183.308	2138.17
183.385	2147.25
183.461	2168.56
183.537	2170.09
183.613	2180.84
183.69	2171.47
183.766	2162.33
183.842	2169.94
183.918	2175.75
183.995	2190.54
184.071	2194.01
184.147	2184.88
184.223	2176.42
184.299	2188.84
184.375	2180.75
184.452	2186.13
184.528	2237.81
184.604	2248.94
184.68	2259.88
184.756	2264.35
184.832	2270.49
184.908	2276.77
184.985	2272.73
185.061	2255.55
185.137	2264.64
185.213	2253.41
185.289	2256.69
185.365	2248.94
185.441	2247.75
185.517	2262.17
185.593	2257.37
185.669	2254.51
185.745	2268.07
185.822	2281.58
185.898	2272.58
185.974	2280.62
186.05	2275.48
186.126	2239.36
186.202	2232.56
186.278	2229.42
186.354	2222.19
186.43	2227.66
186.506	2225.33
186.582	2224.47
186.658	2232.37
186.734	2214.1
186.81	2216.29
186.886	2217.86
186.962	2230.13
187.038	2224.42
187.114	2213
187.19	2218.99
187.266	2207.96
187.341	2209.72
187.417	2205.58
187.493	2204.49
187.569	2207.48
187.645	2198.06
187.721	2187.5
187.797	2194.73
187.873	2198.68
187.949	2190.97
188.025	2186.17
188.101	2191.35
188.176	2197.39
188.252	2192.16
188.328	2196.34
188.404	2197.72
188.48	2197.15
188.556	2189.59
188.632	2194.44
188.707	2198.91
188.783	2197.11
188.859	2194.01
188.935	2180.07
189.011	2189.54
189.086	2185.74
189.162	2177.17
189.238	2175.7
189.314	2175.08
189.39	2168.8
189.465	2160.95
189.541	2178.89
189.617	2161.9
189.693	2156.05
189.768	2161.53
189.844	2186.99
189.92	2181.76
189.996	2189.8
190.071	2197.08
190.147	2196.94
190.223	2206.55
190.298	2195.8
190.374	2181.67
190.45	2194.42
190.526	2204.08
190.601	2193.94
190.677	2196.08
190.753	2221.21
190.828	2226.4
190.904	2238.96
190.98	2256.33
191.055	2267.56
191.131	2257.14
191.207	2279.69
191.282	2289.35
191.358	2279.26
191.433	2263.69
191.509	2276.25
191.585	2274.63
191.66	2276.39
191.736	2284.29
191.811	2275.15
191.887	2296.29
191.963	2321.23
192.038	2324.37
192.114	2324.27
192.189	2330.17
192.265	2326.65
192.34	2306.94
192.416	2305.28
192.491	2301.37
192.567	2303.85
192.642	2305.32
192.718	2307.37
192.793	2293.47
192.869	2290.67
192.944	2290.24
193.02	2297.66
193.095	2303.23
193.171	2307.47
193.246	2305.8
193.322	2301.71
193.397	2300.33
193.473	2279.96
193.548	2260.82
193.624	2267.87
193.699	2269.06
193.775	2285.91
193.85	2285.86
193.925	2295.95
194.001	2297.24
194.076	2288.77
194.152	2276.58
194.227	2268.97
194.302	2259.36
194.378	2266.35
194.453	2263.26
194.529	2276.01
194.604	2260.83
194.679	2252.03
194.755	2234.9
194.83	2248.9
194.905	2247.37
194.981	2257.08
195.056	2254.8
195.131	2263.32
195.207	2258.94
195.282	2252.27
195.357	2232.9
195.433	2251.74
195.508	2240.18
195.583	2245.51
195.659	2259.12
195.734	2266.73
195.809	2265.59
195.884	2273.77
195.96	2272.63
196.035	2287.43
196.11	2284.62
196.185	2296.05
196.261	2299.19
196.336	2328.03
196.411	2311.6
196.486	2318.64
196.561	2312.03
196.637	2317.5
196.712	2332.4
196.787	2338.21
196.862	2351.77
196.937	2362.39
197.013	2366.39
197.088	2377.19
197.163	2399.67
197.238	2421.25
197.313	2419.87
197.388	2435.86
197.464	2469.01
197.539	2481.77
197.614	2474.82
197.689	2489.2
197.764	2506.48
197.839	2528.62
197.914	2521.15
197.989	2546.82
198.065	2557.34
198.14	2606.71
198.215	2636.42
198.29	2647.72
198.365	2659.62
198.44	2671.82
198.515	2699.59
198.59	2716.17
198.665	2743.9
198.74	2752.81
198.815	2755.77
198.89	2781.11
198.965	2815.34
199.04	2810.53
199.115	2826.15
199.19	2870.66
199.265	2870.66
199.34	2881.81
199.415	2917.15
199.49	2941.63
199.565	2948.31
199.64	2975.81
199.715	2975.09
199.79	2979.67
199.865	2988.63
199.94	2989.3
200.015	3021.77
200.09	3026.68
200.165	3034.17
200.24	3042.94
200.315	3087.66
200.39	3097.2
200.464	3103.88
200.539	3102.92
200.614	3119.28
200.689	3143.93
200.764	3151.57
200.839	3174.02
200.914	3178.64
200.989	3167.05
201.063	3181.4
201.138	3167.25
201.213	3167.49
201.288	3148.46
201.363	3156.57
201.438	3156.42
201.512	3174.68
201.587	3155.7
201.662	3163.18
201.737	3171.96
201.812	3179.64
201.886	3143.17
201.961	3155.72
202.036	3143.33
202.111	3141.94
202.186	3114.01
202.26	3095.46
202.335	3072.47
202.41	3066.98
202.485	3052.59
202.559	3036.57
202.634	3012.49
202.709	3023.4
202.784	3010.24
202.858	3016.63
202.933	3002.28
203.008	2999.75
203.082	2986.26
203.157	2988.5
203.232	2949.94
203.306	2940.16
203.381	2914.6
203.456	2903.06
203.53	2890.89
203.605	2884.75
203.68	2874.59
203.754	2881.88
203.829	2885.45
203.904	2883.69
203.978	2890.08
204.053	2917.31
204.127	2925.89
204.202	2950.3
204.277	2959.17
204.351	2980.44
204.426	3003.82
204.5	3031.91
204.575	3033.2
204.65	3079.1
204.724	3113.75
204.799	3165.1
204.873	3205.34
204.948	3251.38
205.022	3289.65
205.097	3336.59
205.171	3407.13
205.246	3474.62
205.32	3536.52
205.395	3602.77
205.469	3662.87
205.544	3739.7
205.618	3792.79
205.693	3881.1
205.767	3949.82
205.842	4058.5
205.916	4136.18
205.991	4218.31
206.065	4314.36
206.14	4427.44
206.214	4525.29
206.289	4623.81
206.363	4745.16
206.438	4858.72
206.512	4983.58
206.586	5120.33
206.661	5249.7
206.735	5352.04
206.81	5481.47
206.884	5628.77
206.958	5748.74
207.033	5903.29
207.107	6056.44
207.181	6233.38
207.256	6376.85
207.33	6548.37
207.405	6721.73
207.479	6902.41
207.553	7065.2
207.628	7203.92
207.702	7374.88
207.776	7527.11
207.851	7693.2
207.925	7876.86
207.999	8047.79
208.073	8215.8
208.148	8392.18
208.222	8557.81
208.296	8769.12
208.371	8960.52
208.445	9150.9
208.519	9363.24
208.593	9555.59
208.668	9729.34
208.742	9914.98
208.816	10100.73
208.89	10296.03
208.965	10463.46
209.039	10651.17
209.113	10845.23
209.187	11064.73
209.261	11251.1
209.336	11461.1
209.41	11672.37
209.484	11857.64
209.558	12064.79
209.632	12265.14
209.707	12460.98
209.781	12666.16
209.855	12866.73
209.929	13068.42
210.003	13256.22
210.077	13432.4
210.151	13666.62
210.226	13880.5
210.3	14092.45
210.374	14301.27
210.448	14486.76
210.522	14678.95
210.596	14865.88
210.67	15063.08
210.744	15284.32
210.818	15496.65
210.892	15698.27
210.966	15862.01
211.041	16048.59
211.115	16214.64
211.189	16408.25
211.263	16599.59
211.337	16772.76
211.411	16945.84
211.485	17106.95
211.559	17285.95
211.633	17447.6
211.707	17578
211.781	17749.47
211.855	17865.42
211.929	18008.94
212.003	18141.52
212.077	18311.3
212.151	18476.93
212.225	18631.24
212.299	18763.33
212.373	18892.72
212.447	19021.29
212.52	19201.24
212.594	19346.34
212.668	19495.78
212.742	19622.28
212.816	19753.41
212.89	19881.65
212.964	20014.95
213.038	20146.71
213.112	20291.38
213.186	20436.68
213.26	20541.74
213.333	20617.41
213.407	20753.07
213.481	20870.95
213.555	21001.13
213.629	21110.39
213.703	21212.48
213.777	21320.73
213.85	21419.54
213.924	21565.49
213.998	21690.29
214.072	21787.23
214.146	21882.05
214.219	21995.86
214.293	22085.9
214.367	22185.16
214.441	22293.87
214.515	22391.92
214.588	22463.9
214.662	22516.11
214.736	22589.39
214.81	22682.48
214.883	22784.49
214.957	22865.19
215.031	22944.45
215.105	23013.78
215.178	23076.41
215.252	23155.3
215.326	23221.4
215.4	23279.65
215.473	23306.56
215.547	23347.84
215.621	23411.11
215.694	23486.87
215.768	23526.95
215.842	23589.25
215.915	23645.54
215.989	23690.73
216.063	23734.38
216.136	23795.77
216.21	23868.4
216.284	23949.24
216.357	24020.43
216.431	24079.46
216.504	24143.18
216.578	24226.82
216.652	24293.05
216.725	24351.27
216.799	24404.38
216.873	24459.38
216.946	24516.63
217.02	24563.09
217.093	24619.33
217.167	24651.71
217.24	24684.32
217.314	24723.4
217.387	24764.59
217.461	24806.67
217.535	24867.85
217.608	24898.96
217.682	24945.76
217.755	25003.43
217.829	25025.77
217.902	25064.03
217.976	25101.38
218.049	25134.05
218.123	25148.67
218.196	25194.13
218.27	25224.05
218.343	25253.19
218.417	25292.09
218.49	25317.18
218.563	25373.5
218.637	25411.96
218.71	25461.09
218.784	25509.89
218.857	25559.84
218.931	25595.69
219.004	25625.13
219.077	25659.26
219.151	25702.74
219.224	25736.05
219.298	25749.9
219.371	25796.38
219.444	25812.41
219.518	25840.11
219.591	25866.61
219.665	25929.32
219.738	25957.75
219.811	25964.17
219.885	25998.59
219.958	26022.1
220.031	26051.45
220.105	26071.19
220.178	26096.44
220.251	26100.25
220.325	26122.7
220.398	26145.59
220.471	26175.66
220.544	26201.01
220.618	26196.86
220.691	26207.14
220.764	26230.41
220.838	26256.04
220.911	26272.85
220.984	26300.12
221.057	26316.83
221.131	26323.1
221.204	26305.14
221.277	26327.45
221.35	26381.52
221.424	26380.32
221.497	26399.19
221.57	26411.75
221.643	26424.4
221.716	26429.32
221.79	26438.3
221.863	26444.05
221.936	26437.63
222.009	26429.85
222.082	26435.36
222.155	26445.11
222.229	26463.6
222.302	26457.81
222.375	26450.95
222.448	26443.61
222.521	26443.37
222.594	26442.31
222.667	26437.29
222.74	26440.62
222.814	26437.58
222.887	26425.31
222.96	26434.1
223.033	26436.8
223.106	26434.87
223.179	26436.75
223.252	26437.19
223.325	26436.27
223.398	26429.08
223.471	26427.63
223.544	26430.14
223.617	26416.81
223.69	26411.36
223.763	26393.25
223.837	26383.26
223.91	26382.87
223.983	26364.28
224.056	26344.06
224.129	26334.54
224.202	26344.34
224.275	26325.42
224.348	26292.88
224.42	26257.88
224.493	26223.02
224.566	26199.17
224.639	26194.49
224.712	26172.03
224.785	26147.03
224.858	26129.94
224.931	26097.11
225.004	26069.35
225.077	26061.19
225.15	26026.73
225.223	25991.54
225.296	26002.69
225.369	25966.01
225.442	25934.92
225.514	25915.37
225.587	25896.21
225.66	25874.73
225.733	25847.6
225.806	25837.22
225.879	25811.3
225.952	25784.9
226.025	25779.2
226.097	25760.23
226.17	25715.78
226.243	25667.51
226.316	25643.72
226.389	25615.48
226.461	25599.36
226.534	25576.92
226.607	25546.18
226.68	25546.08
226.753	25532.86
226.825	25466.83
226.898	25466.97
226.971	25439.85
227.044	25409.35
227.117	25391.88
227.189	25378.22
227.262	25352.88
227.335	25315.1
227.407	25278.04
227.48	25255.22
227.553	25229.69
227.626	25190.16
227.698	25163.63
227.771	25141.72
227.844	25106.69
227.916	25079.18
227.989	25034.84
228.062	25004.69
228.134	24992.09
228.207	24955.08
228.28	24919.38
228.352	24898.87
228.425	24867.12
228.498	24851.39
228.57	24823.46
228.643	24803.34
228.716	24754.75
228.788	24721.26
228.861	24695.69
228.934	24681.32
229.006	24656.91
229.079	24621.69
229.151	24600.7
229.224	24562.16
229.296	24540.64
229.369	24544.46
229.442	24528.39
229.514	24490.14
229.587	24474.94
229.659	24420.72
229.732	24394.86
229.804	24378.94
229.877	24379.04
229.949	24347.49
230.022	24336.59
230.094	24301.43
230.167	24274.46
230.239	24246.92
230.312	24216.24
230.384	24203.84
230.457	24183.39
230.529	24163.42
230.602	24139.74
230.674	24107.57
230.747	24099.08
230.819	24081.76
230.892	24009.07
230.964	23969.91
231.037	23949.7
231.109	23914.74
231.181	23895.45
231.254	23850.21
231.326	23816.79
231.399	23776.03
231.471	23738.84
231.544	23673.68
231.616	23655.26
231.688	23621.98
231.761	23576.46
231.833	23536.77
231.905	23483.15
231.978	23444.52
232.05	23400.59
232.122	23363.79
232.195	23314.17
232.267	23291.27
232.339	23248.88
232.412	23235.72
232.484	23200.23
232.556	23160.74
232.629	23152.4
232.701	23116.76
232.773	23084.65
232.846	23044.58
232.918	23003.93
232.99	22976.45
233.062	22950.22
233.135	22913.82
233.207	22860.44
233.279	22836.38
233.351	22810.4
233.424	22774.29
233.496	22733.55
233.568	22722.02
233.64	22687.79
233.713	22657.76
233.785	22612.39
233.857	22582.35
233.929	22524.26
234.001	22510.33
234.074	22488.44
234.146	22425.43
234.218	22400.45
234.29	22361.94
234.362	22320.1
234.434	22271.02
234.507	22222.86
234.579	22168.63
234.651	22134.45
234.723	22099.65
234.795	22072.99
234.867	22029.22
234.939	22009.46
235.012	21972.82
235.084	21929.87
235.156	21888.22
235.228	21844.69
235.3	21798.52
235.372	21757.25
235.444	21734.21
235.516	21672.71
235.588	21641.91
235.66	21612.07
235.732	21549.31
235.804	21569.51
235.876	21544.06
235.948	21521.21
236.02	21474.46
236.092	21437.25
236.164	21391.17
236.236	21351.94
236.308	21305.29
236.38	21276.66
236.452	21220.17
236.524	21190.96
236.596	21168.6
236.668	21134.57
236.74	21108.01
236.812	21078.95
236.884	21049.5
236.956	21010.32
237.028	20961.26
237.1	20907.09
237.172	20875.18
237.244	20865.15
237.316	20788.08
237.388	20734.69
237.46	20689.86
237.532	20665.48
237.604	20622.64
237.675	20600.95
237.747	20571.31
237.819	20519.45
237.891	20471.41
237.963	20425.43
238.035	20370.25
238.107	20285.33
238.178	20258.3
238.25	20204.27
238.322	20184.56
238.394	20121.87
238.466	20078.93
238.538	20039.89
238.609	20006.79
238.681	19948.38
238.753	19890.88
238.825	19844.09
238.897	19803.18
238.968	19773.92
239.04	19730.07
239.112	19725.69
239.184	19677.88
239.255	19639.81
239.327	19602.46
239.399	19561.36
239.471	19523.96
239.542	19495.63
239.614	19479.87
239.686	19414.62
239.758	19398.76
239.829	19345.22
239.901	19317.61
239.973	19279.01
240.044	19252.55
240.116	19223.54
240.188	19182.25
240.259	19137.86
240.331	19095.12
240.403	19070.54
240.474	19006.55
240.546	18959.46
240.618	18888.19
240.689	18840.44
240.761	18797.55
240.833	18782.32
240.904	18748.3
240.976	18717.45
241.048	18679.82
241.119	18643.82
241.191	18613.08
241.262	18582.38
241.334	18534.96
241.405	18500.36
241.477	18456.65
241.549	18414.63
241.62	18366.34
241.692	18336.46
241.763	18314.73
241.835	18277.43
241.906	18245.38
241.978	18208.61
242.049	18190.88
242.121	18165.24
242.192	18144.57
242.264	18091.27
242.335	18031.13
242.407	17998.89
242.478	17952.09
242.55	17917.59
242.621	17870.31
242.693	17824.39
242.764	17777.21
242.836	17743.91
242.907	17710.8
242.979	17679.28
243.05	17644.15
243.122	17617.98
243.193	17569.5
243.264	17505.64
243.336	17468.34
243.407	17426.42
243.479	17404.34
243.55	17366.85
243.622	17329.6
243.693	17284.83
243.764	17269.98
243.836	17218.08
243.907	17173.83
243.978	17136.34
244.05	17103.33
244.121	17058.75
244.192	17029.83
244.264	16974.41
244.335	16936.33
244.407	16883.99
244.478	16856.43
244.549	16819.41
244.62	16760.13
244.692	16729.24
244.763	16715.36
244.834	16674.87
244.906	16628.9
244.977	16596.12
245.048	16578.63
245.119	16544.26
245.191	16499.44
245.262	16437.32
245.333	16430.47
245.405	16394.76
245.476	16368.49
245.547	16334.8
245.618	16309.3
245.689	16281.69
245.761	16259.47
245.832	16220.28
245.903	16202.11
245.974	16161.82
246.045	16127.02
246.117	16122.83
246.188	16084.75
246.259	16031.63
246.33	16002.52
246.401	15971.24
246.473	15920.97
246.544	15874.31
246.615	15846.79
246.686	15810.69
246.757	15799.85
246.828	15750.54
246.899	15734.82
246.97	15680.79
247.042	15637.02
247.113	15605.21
247.184	15587.96
247.255	15546.36
247.326	15524.04
247.397	15480.08
247.468	15459.16
247.539	15428.8
247.61	15376.93
247.681	15355.96
247.752	15338.47
247.823	15289.3
247.894	15256.67
247.965	15217.24
248.037	15178.24
248.108	15130.62
248.179	15101.6
248.25	15063.37
248.321	15045.25
248.392	14995.94
248.463	14997.72
248.534	14965.18
248.605	14946.24
248.675	14910.57
248.746	14893.94
248.817	14867.72
248.888	14848.05
248.959	14793.24
249.03	14763.89
249.101	14736.22
249.172	14692.79
249.243	14641.25
249.314	14629.83
249.385	14606.07
249.456	14585.34
249.527	14552.22
249.598	14532.07
249.669	14497.89
249.739	14470.27
249.81	14449.64
249.881	14416.91
249.952	14387.6
250.023	14359.16
250.094	14313.17
250.165	14278.08
250.235	14235.61
250.306	14201.19
250.377	14158.58
250.448	14139.05
250.519	14092
250.59	14081.21
250.66	14051.27
250.731	14049.2
250.802	14020.71
250.873	13994.53
250.944	13974.38
251.014	13947.58
251.085	13947.48
251.156	13929.11
251.227	13919.47
251.297	13901.54
251.368	13887.42
251.439	13869.48
251.51	13858.44
251.58	13820.7
251.651	13791.58
251.722	13788.79
251.792	13745.26
251.863	13728.24
251.934	13719.95
252.005	13733.01
252.075	13704.09
252.146	13693.87
252.217	13670.15
252.287	13657.86
252.358	13634.43
252.429	13625.56
252.499	13591.04
252.57	13565.4
252.641	13555.56
252.711	13530.3
252.782	13488.36
252.852	13479.88
252.923	13452.06
252.994	13437.07
253.064	13430.61
253.135	13399.57
253.205	13365.92
253.276	13376.33
253.347	13365.19
253.417	13339.98
253.488	13301.56
253.558	13275.39
253.629	13249.88
253.699	13236.44
253.77	13224.38
253.841	13207.27
253.911	13185.96
253.982	13175.36
254.052	13159.88
254.123	13139.73
254.193	13112.54
254.264	13135.92
254.334	13105.6
254.405	13069.74
254.475	13032.91
254.546	13010.59
254.616	13006.49
254.687	12986.68
254.757	12960.74
254.827	12931.24
254.898	12903.62
254.968	12881.54
255.039	12852.91
255.109	12839.51
255.18	12811.89
255.25	12758.67
255.321	12744.4
255.391	12710.03
255.461	12709.16
255.532	12661.77
255.602	12631.6
255.673	12587.68
255.743	12549.26
255.813	12504.72
255.884	12498.12
255.954	12483.61
256.024	12481.05
256.095	12453.34
256.165	12421.76
256.235	12403.93
256.306	12370.91
256.376	12365.22
256.446	12363.05
256.517	12340.35
256.587	12332.68
256.657	12312.24
256.728	12298.8
256.798	12278.65
256.868	12253.73
256.938	12221.96
257.009	12209.33
257.079	12205.33
257.149	12220.22
257.219	12181.56
257.29	12174.19
257.36	12134.86
257.43	12127.48
257.5	12089.07
257.571	12065.83
257.641	12056.05
257.711	12026.35
257.781	12022.21
257.852	12003.75
257.922	11956.8
257.992	11936.17
258.062	11910.62
258.132	11899.49
258.202	11879.82
258.273	11857.8
258.343	11863.34
258.413	11834.42
258.483	11809.98
258.553	11768
258.623	11732.81
258.693	11720.09
258.764	11717.92
258.834	11719.85
258.904	11698.4
258.974	11670.59
259.044	11654.11
259.114	11637.04
259.184	11616.99
259.254	11594.82
259.324	11559.01
259.394	11556.12
259.464	11562.48
259.535	11540.89
259.605	11517.9
259.675	11495.06
259.745	11481.37
259.815	11444.54
259.885	11424.4
259.955	11440.93
260.025	11417.03
260.095	11403.58
260.165	11387.19
260.235	11381.99
260.305	11357.99
260.375	11323.38
260.445	11330.42
260.515	11323.38
260.585	11325.7
260.655	11311
260.725	11303.82
260.795	11299.33
260.865	11292.88
260.934	11265.07
261.004	11264.68
261.074	11252.44
261.144	11250.71
261.214	11239.91
261.284	11227.24
261.354	11220.59
261.424	11192.34
261.494	11198.41
261.564	11184.2
261.634	11171.81
261.703	11132.34
261.773	11119.19
