Data from 20250703_urea_0.1M_MAYP1162681_21-21-04-806.txt Node
Date: Thu Jul 03 21:21:04 BST 2025
User: adleo
Spectrometer: MAYP116268
Trigger mode: 0
Integration Time (sec): 1.000000E0
Scans to average: 1
Electric dark correction enabled: true
Nonlinearity correction enabled: true
Boxcar width: 10
XAxis mode: Wavelengths
Number of Pixels in Spectrum: 2068
>>>>>Begin Spectral Data<<<<<
179.565	1387.15
179.642	1454.49
179.718	1504.25
179.795	1549.69
179.871	1586.93
179.948	1612.16
180.024	1635.47
180.101	1661.69
180.177	1678.26
180.254	1707.66
180.33	1732.26
180.407	1801.51
180.483	1910.6
180.56	2014.66
180.636	2112.39
180.712	2094.92
180.789	2105.53
180.865	2114.52
180.942	2124.65
181.018	2135.92
181.095	2155.39
181.171	2163.05
181.248	2165.47
181.324	2183.37
181.4	2191.46
181.477	2203.83
181.553	2217.48
181.63	2242.75
181.706	2261.98
181.782	2273.82
181.859	2269.54
181.935	2277.15
182.011	2274.25
182.088	2293.53
182.164	2315.28
182.24	2330.79
182.317	2341.88
182.393	2341.4
182.469	2357.77
182.546	2372.86
182.622	2377.62
182.698	2370.81
182.775	2381.67
182.851	2395.95
182.927	2386
183.003	2381.1
183.08	2373.53
183.156	2383.91
183.232	2376.24
183.308	2361.58
183.385	2369.72
183.461	2390.67
183.537	2390.76
183.613	2401.04
183.69	2392.09
183.766	2381.05
183.842	2387.04
183.918	2394.8
183.995	2409.04
184.071	2414.23
184.147	2406.75
184.223	2394.76
184.299	2407.09
184.375	2394.76
184.452	2399.81
184.528	2454.72
184.604	2468.71
184.68	2485.09
184.756	2493.09
184.832	2502.13
184.908	2509.51
184.985	2509.08
185.061	2492.28
185.137	2502.89
185.213	2493.61
185.289	2494.75
185.365	2485.19
185.441	2483.38
185.517	2495
185.593	2492.43
185.669	2493.29
185.745	2507.09
185.822	2524.08
185.898	2514.51
185.974	2527.41
186.05	2518.79
186.126	2482.74
186.202	2473.7
186.278	2467.03
186.354	2455.32
186.43	2461.08
186.506	2457.7
186.582	2454.75
186.658	2461.08
186.734	2437.57
186.81	2439.14
186.886	2441.85
186.962	2457.03
187.038	2454.84
187.114	2449.7
187.19	2458.51
187.266	2443.42
187.341	2445.56
187.417	2440.14
187.493	2443.52
187.569	2445.75
187.645	2441.18
187.721	2427.09
187.797	2433.37
187.873	2441.28
187.949	2435.8
188.025	2428.32
188.101	2430.09
188.176	2438.13
188.252	2432.8
188.328	2440.46
188.404	2439.03
188.48	2435.08
188.556	2425.7
188.632	2427.08
188.707	2428.23
188.783	2423.84
188.859	2418.75
188.935	2404.94
189.011	2413.18
189.086	2404.52
189.162	2395.95
189.238	2389.95
189.314	2387.71
189.39	2380.33
189.465	2369.19
189.541	2391.81
189.617	2376.82
189.693	2372.87
189.768	2375.11
189.844	2403.06
189.92	2397.35
189.996	2405.97
190.071	2416.59
190.147	2416.49
190.223	2422.4
190.298	2414.78
190.374	2399.54
190.45	2413.58
190.526	2423.58
190.601	2417.87
190.677	2420.39
190.753	2450.36
190.828	2458.02
190.904	2470.06
190.98	2488.25
191.055	2501.87
191.131	2486.96
191.207	2511.48
191.282	2523.57
191.358	2514.77
191.433	2497.57
191.509	2510.94
191.585	2509.37
191.66	2511.23
191.736	2518.61
191.811	2510.8
191.887	2525.28
191.963	2549.37
192.038	2553.51
192.114	2552.18
192.189	2553.42
192.265	2547.71
192.34	2523.41
192.416	2520.36
192.491	2521.84
192.567	2529.03
192.642	2529.7
192.718	2528.94
192.793	2511.65
192.869	2504.32
192.944	2507.32
193.02	2517.22
193.095	2521.84
193.171	2527.94
193.246	2527.65
193.322	2526.7
193.397	2529.51
193.473	2518.17
193.548	2500.22
193.624	2508.08
193.699	2509.55
193.775	2530.66
193.85	2531.85
193.925	2541.28
194.001	2543.04
194.076	2533.89
194.152	2517.17
194.227	2511.08
194.302	2500.32
194.378	2508.42
194.453	2504.75
194.529	2514.75
194.604	2496.99
194.679	2490.04
194.755	2471.23
194.83	2481.43
194.905	2479
194.981	2485.52
195.056	2477.72
195.131	2487
195.207	2485
195.282	2472.15
195.357	2449.42
195.433	2470.18
195.508	2457.56
195.583	2464.13
195.659	2479.85
195.734	2491.52
195.809	2490.9
195.884	2501.56
195.96	2500.85
196.035	2523.61
196.11	2521.94
196.185	2538.7
196.261	2544.51
196.336	2580.52
196.411	2568.51
196.486	2573.66
196.561	2570.23
196.637	2577.37
196.712	2593
196.787	2595.62
196.862	2613.62
196.937	2624.42
197.013	2625.9
197.088	2637.66
197.163	2661.97
197.238	2682.61
197.313	2680.75
197.388	2695.57
197.464	2728.4
197.539	2736.16
197.614	2727.73
197.689	2739.36
197.764	2756.99
197.839	2780.06
197.914	2770.43
197.989	2793.92
198.065	2811.6
198.14	2866.06
198.215	2896.75
198.29	2912.06
198.365	2928.03
198.44	2938.37
198.515	2970.69
198.59	2989.86
198.665	3019.46
198.74	3029.1
198.815	3031.29
198.89	3055.51
198.965	3090.28
199.04	3083.99
199.115	3104.82
199.19	3150.98
199.265	3156.41
199.34	3165.19
199.415	3202.7
199.49	3227.92
199.565	3240.47
199.64	3265.13
199.715	3263.93
199.79	3269.99
199.865	3275.67
199.94	3274.19
200.015	3311.74
200.09	3317.8
200.165	3326.25
200.24	3333.74
200.315	3379.93
200.39	3395.58
200.464	3404.55
200.539	3403.55
200.614	3425.21
200.689	3448.26
200.764	3456.23
200.839	3475.36
200.914	3483.09
200.989	3471.1
201.063	3486.76
201.138	3467.3
201.213	3469.45
201.288	3444.01
201.363	3454.22
201.438	3456.75
201.512	3475.69
201.587	3451.92
201.662	3458.08
201.737	3473.31
201.812	3482.33
201.886	3444.02
201.961	3455.91
202.036	3443.65
202.111	3442.98
202.186	3413.41
202.26	3398.51
202.335	3374.36
202.41	3371.45
202.485	3352.32
202.559	3328.7
202.634	3301.12
202.709	3315.24
202.784	3297.16
202.858	3305.31
202.933	3282.6
203.008	3277.69
203.082	3260.66
203.157	3270.87
203.232	3226.28
203.306	3206.42
203.381	3179.41
203.456	3162.19
203.53	3144.38
203.605	3130.98
203.68	3115.33
203.754	3117.29
203.829	3114.8
203.904	3106.27
203.978	3106.46
204.053	3127.74
204.127	3133.12
204.202	3152.54
204.277	3151.68
204.351	3166.9
204.426	3178.64
204.5	3196.29
204.575	3183.42
204.65	3220.6
204.724	3241.42
204.799	3281.9
204.873	3311.31
204.948	3342.95
205.022	3365.57
205.097	3395.04
205.171	3447.58
205.246	3500.03
205.32	3545.36
205.395	3591.74
205.469	3632.26
205.544	3687.73
205.618	3727.58
205.693	3800.21
205.767	3845.46
205.842	3929.34
205.916	3986.22
205.991	4041.91
206.065	4117.5
206.14	4210.35
206.214	4281.13
206.289	4346.72
206.363	4443.99
206.438	4527.7
206.512	4622.57
206.586	4733.55
206.661	4832.5
206.735	4904.35
206.81	4999.36
206.884	5114.16
206.958	5200.14
207.033	5326.95
207.107	5443.03
207.181	5586.7
207.256	5685.48
207.33	5817.01
207.405	5945.49
207.479	6083.8
207.553	6206.85
207.628	6308.85
207.702	6439.59
207.776	6558.86
207.851	6687.92
207.925	6831.56
207.999	6962.61
208.073	7085.89
208.148	7214.43
208.222	7329.53
208.296	7500.55
208.371	7649.19
208.445	7794.88
208.519	7959.51
208.593	8101.97
208.668	8232
208.742	8373.07
208.816	8520.86
208.89	8676.6
208.965	8811.72
209.039	8964.28
209.113	9124.62
209.187	9299.92
209.261	9444.49
209.336	9613.08
209.41	9779.47
209.484	9919.97
209.558	10086.77
209.632	10241.05
209.707	10400.06
209.781	10573.63
209.855	10730.55
209.929	10898.63
210.003	11052.25
210.077	11196.81
210.151	11387.75
210.226	11573.63
210.3	11735.62
210.374	11888.68
210.448	12033.13
210.522	12190.5
210.596	12336.6
210.67	12492.39
210.744	12673.58
210.818	12838.77
210.892	12991.38
210.966	13121.58
211.041	13269.42
211.115	13400.35
211.189	13566.56
211.263	13721.68
211.337	13859.21
211.411	14007.92
211.485	14126.12
211.559	14261.43
211.633	14393.18
211.707	14490.5
211.781	14623.35
211.855	14713.88
211.929	14841.81
212.003	14947.77
212.077	15087.31
212.151	15226.57
212.225	15355.94
212.299	15455.28
212.373	15567.69
212.447	15685.25
212.52	15831.39
212.594	15949.91
212.668	16073.16
212.742	16173.99
212.816	16283.35
212.89	16379.46
212.964	16493.44
213.038	16604.53
213.112	16728.93
213.186	16852.02
213.26	16932.37
213.333	16987.74
213.407	17092.13
213.481	17200.43
213.555	17314.41
213.629	17389.49
213.703	17466.6
213.777	17570.31
213.85	17657.2
213.924	17787.95
213.998	17879.08
214.072	17971.8
214.146	18056.42
214.219	18146.73
214.293	18229.47
214.367	18315.74
214.441	18429.27
214.515	18500.59
214.588	18563.87
214.662	18608.06
214.736	18664.44
214.81	18761.35
214.883	18843.57
214.957	18921.01
215.031	18983.8
215.105	19031.41
215.178	19097.19
215.252	19163.02
215.326	19199.21
215.4	19248.17
215.473	19257.23
215.547	19306.33
215.621	19353.27
215.694	19433.12
215.768	19479.72
215.842	19529.65
215.915	19574.18
215.989	19604.68
216.063	19654.46
216.136	19723.62
216.21	19787.03
216.284	19866.36
216.357	19922.74
216.431	19983.61
216.504	20046.88
216.578	20130.78
216.652	20200.13
216.725	20247.46
216.799	20309.77
216.873	20374.78
216.946	20436.03
217.02	20493.52
217.093	20542.68
217.167	20578.1
217.24	20604.37
217.314	20652.03
217.387	20695.21
217.461	20742.88
217.535	20809.92
217.608	20853.2
217.682	20890.69
217.755	20946.17
217.829	20979.52
217.902	21022.85
217.976	21067.86
218.049	21100.01
218.123	21127.63
218.196	21185.99
218.27	21239.2
218.343	21270.19
218.417	21315.02
218.49	21363.99
218.563	21428.72
218.637	21478.27
218.71	21539.39
218.784	21596.8
218.857	21641.28
218.931	21694.5
219.004	21743.18
219.077	21782.61
219.151	21823
219.224	21867.93
219.298	21914.3
219.371	21976
219.444	22005.79
219.518	22046.52
219.591	22092.94
219.665	22159.08
219.738	22196.88
219.811	22223.82
219.885	22273.81
219.958	22313.78
220.031	22345.26
220.105	22380.79
220.178	22423.5
220.251	22455.03
220.325	22487.24
220.398	22528.84
220.471	22564.23
220.544	22603.28
220.618	22633.55
220.691	22669.91
220.764	22701.53
220.838	22726.65
220.911	22742.51
220.984	22800.61
221.057	22839.03
221.131	22873.17
221.204	22871.63
221.277	22916.18
221.35	22978.62
221.424	23001.33
221.497	23027.56
221.57	23054.75
221.643	23087.15
221.716	23114.69
221.79	23134.02
221.863	23159.96
221.936	23180.46
222.009	23199.89
222.082	23219.61
222.155	23234.75
222.229	23277.62
222.302	23305.25
222.375	23330.71
222.448	23358.24
222.521	23372.81
222.594	23393.25
222.667	23393.83
222.74	23419.87
222.814	23428.07
222.887	23437.62
222.96	23470.41
223.033	23500.02
223.106	23519.65
223.179	23537.44
223.252	23553.84
223.325	23566.71
223.398	23582.19
223.471	23596.95
223.544	23618.27
223.617	23635.96
223.69	23654.48
223.763	23645.51
223.837	23656.31
223.91	23673.39
223.983	23666.25
224.056	23663.11
224.129	23676.67
224.202	23705.7
224.275	23709.89
224.348	23702.32
224.42	23685.2
224.493	23664.03
224.566	23657.28
224.639	23667.64
224.712	23658.58
224.785	23655.3
224.858	23660.31
224.931	23654.14
225.004	23648.26
225.077	23640.49
225.15	23623.18
225.223	23617.59
225.296	23642.57
225.369	23624
225.442	23608.28
225.514	23609.49
225.587	23607.99
225.66	23599.41
225.733	23594.58
225.806	23588.56
225.879	23582.72
225.952	23577.61
226.025	23590.78
226.097	23598.4
226.17	23592.51
226.243	23576.21
226.316	23561.99
226.389	23557.79
226.461	23568.79
226.534	23561.17
226.607	23562.42
226.68	23564.88
226.753	23561.5
226.825	23534.3
226.898	23546.02
226.971	23536.96
227.044	23535.46
227.117	23534.79
227.189	23531.02
227.262	23535.65
227.335	23537.29
227.407	23521.96
227.48	23526.59
227.553	23524.37
227.626	23506.72
227.698	23490.32
227.771	23490.52
227.844	23470.46
227.916	23462.07
227.989	23425.41
228.062	23411.24
228.134	23422.14
228.207	23422.62
228.28	23409.5
228.352	23399.86
228.425	23395.66
228.498	23398.75
228.57	23381.34
228.643	23382.93
228.716	23379.12
228.788	23358.63
228.861	23333.5
228.934	23335.43
229.006	23303.71
229.079	23272.65
229.151	23249.26
229.224	23215.42
229.296	23205.1
229.369	23225.35
229.442	23224
229.514	23208.76
229.587	23211.85
229.659	23171.92
229.732	23158.66
229.804	23153.21
229.877	23162.67
229.949	23147.91
230.022	23145.45
230.094	23121.97
230.167	23111.55
230.239	23068.88
230.312	23044.44
230.384	23054.85
230.457	23044.77
230.529	23035.71
230.602	23034.17
230.674	23026.69
230.747	23032.33
230.819	23016.23
230.892	22965.75
230.964	22943.66
231.037	22928.53
231.109	22901.28
231.181	22890.24
231.254	22853.26
231.326	22814.45
231.399	22774.09
231.471	22744.15
231.544	22705.24
231.616	22703.7
231.688	22679.78
231.761	22651.2
231.833	22628.49
231.905	22575.79
231.978	22549.33
232.05	22534.28
232.122	22509.45
232.195	22484.14
232.267	22482.55
232.339	22454.69
232.412	22458.21
232.484	22434.15
232.556	22406.86
232.629	22407.3
232.701	22400.16
232.773	22378.95
232.846	22361.69
232.918	22339.42
232.99	22319.22
233.062	22306.06
233.135	22286.3
233.207	22247.1
233.279	22245.42
233.351	22239.1
233.424	22217.02
233.496	22191.43
233.568	22181.25
233.64	22141.39
233.713	22111.84
233.785	22075.97
233.857	22057.7
233.929	22001.5
234.001	21991.37
234.074	21976.38
234.146	21933.38
234.218	21899.01
234.29	21867.73
234.362	21834.09
234.434	21797.84
234.507	21752.24
234.579	21702.35
234.651	21665.77
234.723	21647.45
234.795	21621.52
234.867	21577.17
234.939	21563
235.012	21534.28
235.084	21509.16
235.156	21487.52
235.228	21445.01
235.3	21400.38
235.372	21373.72
235.444	21364.95
235.516	21309.86
235.588	21278.77
235.66	21238.77
235.732	21194.81
235.804	21229.56
235.876	21207.87
235.948	21190.62
236.02	21166.33
236.092	21139.29
236.164	21101.12
236.236	21059.82
236.308	21025.26
236.38	20993.16
236.452	20950.36
236.524	20914.46
236.596	20891.95
236.668	20872.48
236.74	20846.41
236.812	20819.37
236.884	20788.43
236.956	20758.59
237.028	20713.44
237.1	20673.2
237.172	20675.32
237.244	20665.97
237.316	20587.26
237.388	20547.16
237.46	20504.17
237.532	20484.37
237.604	20438.83
237.675	20432.9
237.747	20413.33
237.819	20366.25
237.891	20335.45
237.963	20296.61
238.035	20255.99
238.107	20184.95
238.178	20164.8
238.25	20123.89
238.322	20124.76
238.394	20070.98
238.466	20024.57
238.538	20005.63
238.609	19972.57
238.681	19906.16
238.753	19859.13
238.825	19826.02
238.897	19795.61
238.968	19778.41
239.04	19738.02
239.112	19738.46
239.184	19686.99
239.255	19648.58
239.327	19621.88
239.399	19593.64
239.471	19568.15
239.542	19549.36
239.614	19530.08
239.686	19460.21
239.758	19448.3
239.829	19390.86
239.901	19369.8
239.973	19333.13
240.044	19300.94
240.116	19267.83
240.188	19233.86
240.259	19191.64
240.331	19144.46
240.403	19124.76
240.474	19069.19
240.546	19024.71
240.618	18965.78
240.689	18914.12
240.761	18874.17
240.833	18852.24
240.904	18805.21
240.976	18764.01
241.048	18723.33
241.119	18703.53
241.191	18669.89
241.262	18646.37
241.334	18603.82
241.405	18571.73
241.477	18535.35
241.549	18492.12
241.62	18466.58
241.692	18436.75
241.763	18412.94
241.835	18378.63
241.906	18337.67
241.978	18294.39
242.049	18277.33
242.121	18257.43
242.192	18237.19
242.264	18179.94
242.335	18127.32
242.407	18102.98
242.478	18065.87
242.55	18032.77
242.621	17983.71
242.693	17942.79
242.764	17904.82
242.836	17869.06
242.907	17831.38
242.979	17801.59
243.05	17772.44
243.122	17740.53
243.193	17707.28
243.264	17651.09
243.336	17617.98
243.407	17582.95
243.479	17564.3
243.55	17523.48
243.622	17483.38
243.693	17448.88
243.764	17439.14
243.836	17394.51
243.907	17362.46
243.978	17326.03
244.05	17298.85
244.121	17238.99
244.192	17218.99
244.264	17159.57
244.335	17126.89
244.407	17078.84
244.478	17056.1
244.549	17016.1
244.62	16960.96
244.692	16919.27
244.763	16898.45
244.834	16852.33
244.906	16816.23
244.977	16777.05
245.048	16761.63
245.119	16721.34
245.191	16675.55
245.262	16615.64
245.333	16597.81
245.405	16562.34
245.476	16539.83
245.547	16503.01
245.618	16492.07
245.689	16459.34
245.761	16427.58
245.832	16382.85
245.903	16359.14
245.974	16321.35
246.045	16284.72
246.117	16268.53
246.188	16225.01
246.259	16165.43
246.33	16136.75
246.401	16097.62
246.473	16053.66
246.544	16004.31
246.615	15983.48
246.686	15952.59
246.757	15939.86
246.828	15903.52
246.899	15884.53
246.97	15833.29
247.042	15791.94
247.113	15769.67
247.184	15766.11
247.255	15733.33
247.326	15709.9
247.397	15668.11
247.468	15639.53
247.539	15615.05
247.61	15571.81
247.681	15547.27
247.752	15539.95
247.823	15495.79
247.894	15471.26
247.965	15435.06
248.037	15401.22
248.108	15354.32
248.179	15316.72
248.25	15281.39
248.321	15256.71
248.392	15204.27
248.463	15199.21
248.534	15170.62
248.605	15141.37
248.675	15104.73
248.746	15087.86
248.817	15067.18
248.888	15048.82
248.959	14996.28
249.03	14974.73
249.101	14942.67
249.172	14910.96
249.243	14858.61
249.314	14852.1
249.385	14820.96
249.456	14794.93
249.527	14764.08
249.598	14737.23
249.669	14712.69
249.739	14687.29
249.81	14662.41
249.881	14618.93
249.952	14588.71
250.023	14552.75
250.094	14507.48
250.165	14461.21
250.235	14425.34
250.306	14398.93
250.377	14362.97
250.448	14342.09
250.519	14291.43
250.59	14288.88
250.66	14259.71
250.731	14262.22
250.802	14233.78
250.873	14211.36
250.944	14193.04
251.014	14162.72
251.085	14170.68
251.156	14146.86
251.227	14136.45
251.297	14125.55
251.368	14127.24
251.439	14107.43
251.51	14103.96
251.58	14067.42
251.651	14044.81
251.722	14032.95
251.792	13984.26
251.863	13951.96
251.934	13951
252.005	13964.45
252.075	13930.95
252.146	13926.03
252.217	13906.6
252.287	13892.53
252.358	13866.49
252.429	13865.29
252.499	13840.66
252.57	13816.79
252.641	13801.32
252.711	13779.24
252.782	13736.34
252.852	13731.76
252.923	13709.68
252.994	13691.22
253.064	13686.2
253.135	13647.3
253.205	13619.82
253.276	13621.94
253.347	13621.12
253.417	13589.93
253.488	13550.16
253.558	13527.41
253.629	13498.97
253.699	13480.55
253.77	13463.63
253.841	13437.84
253.911	13414.12
253.982	13392.14
254.052	13374.74
254.123	13363.12
254.193	13337.72
254.264	13358.16
254.334	13321.42
254.405	13281.8
254.475	13243.91
254.546	13213.39
254.616	13205.05
254.687	13190.69
254.757	13175.7
254.827	13145.61
254.898	13122.81
254.968	13105.07
255.039	13074.51
255.109	13062.84
255.18	13032.86
255.25	12986.92
255.321	12973.66
255.391	12931.48
255.461	12936.79
255.532	12881.45
255.602	12849.73
255.673	12807.74
255.743	12765.51
255.813	12709.83
255.884	12704.44
255.954	12689.93
256.024	12695.66
256.095	12672.96
256.165	12627.84
256.235	12612.41
256.306	12585.51
256.376	12576.07
256.446	12561.7
256.517	12550.57
256.587	12542.9
256.657	12519.57
256.728	12505.11
256.798	12486.69
256.868	12477.54
256.938	12440.56
257.009	12436.8
257.079	12427.6
257.149	12432.27
257.219	12394.67
257.29	12392.55
257.36	12341.7
257.43	12326.71
257.5	12277.88
257.571	12253.1
257.641	12251.22
257.711	12214.44
257.781	12210.58
257.852	12202.73
257.922	12165.8
257.992	12142.43
258.062	12111.72
258.132	12105.74
258.202	12083.14
258.273	12057.93
258.343	12051.37
258.413	12029.1
258.483	12007.6
258.553	11975.94
258.623	11953.86
258.693	11940.51
258.764	11935.54
258.834	11955.59
258.904	11942.63
258.974	11920.6
259.044	11904.84
259.114	11887.54
259.184	11873.08
259.254	11848.25
259.324	11798.9
259.394	11788.2
259.464	11788.15
259.535	11772.48
259.605	11743.13
259.675	11714.07
259.745	11706.26
259.815	11670.59
259.885	11647.31
259.955	11662.16
260.025	11634.64
260.095	11610.49
260.165	11595.89
260.235	11594.54
260.305	11556.7
260.375	11528.6
260.445	11532.65
260.515	11528.51
260.585	11527.3
260.655	11509.81
260.725	11506.87
260.795	11498.91
260.865	11502.72
260.934	11473.51
261.004	11461.03
261.074	11443.87
261.144	11451.01
261.214	11450.57
261.284	11438.14
261.354	11431.73
261.424	11399.82
261.494	11409.41
261.564	11400.44
261.634	11400.64
261.703	11358.85
261.773	11353.02
261.843	11340.06
261.913	11325.84
