Data from 20250703_urea_0.1M_MAYP1162681_20-41-04-974.txt Node
Date: Thu Jul 03 20:41:04 BST 2025
User: adleo
Spectrometer: MAYP116268
Trigger mode: 0
Integration Time (sec): 1.000000E0
Scans to average: 1
Electric dark correction enabled: true
Nonlinearity correction enabled: true
Boxcar width: 10
XAxis mode: Wavelengths
Number of Pixels in Spectrum: 2068
>>>>>Begin Spectral Data<<<<<
179.565	1378.53
179.642	1443.25
179.718	1498.24
179.795	1543.95
179.871	1580.63
179.948	1602
180.024	1628.07
180.101	1654.86
180.177	1673.04
180.254	1698.64
180.33	1724
180.407	1790.07
180.483	1896.64
180.56	2002.46
180.636	2100.66
180.712	2084.44
180.789	2095.23
180.865	2109.64
180.942	2119.77
181.018	2131.33
181.095	2147.08
181.171	2154.84
181.248	2157.93
181.324	2172.68
181.4	2179.44
181.477	2191.29
181.553	2206.89
181.63	2230.97
181.706	2249.1
181.782	2258.14
181.859	2258.62
181.935	2264.9
182.011	2262.52
182.088	2283.7
182.164	2302.36
182.24	2317.92
182.317	2332.53
182.393	2329.24
182.469	2345.19
182.546	2360.13
182.622	2365.56
182.698	2358.75
182.775	2372.51
182.851	2389.74
182.927	2381.27
183.003	2379.03
183.08	2373.7
183.156	2380.51
183.232	2375.84
183.308	2365.08
183.385	2373.36
183.461	2391.98
183.537	2391.5
183.613	2406.92
183.69	2397.4
183.766	2387.12
183.842	2391.64
183.918	2396.4
183.995	2412.68
184.071	2414.06
184.147	2407.2
184.223	2397.11
184.299	2412.78
184.375	2399.59
184.452	2401.21
184.528	2455.35
184.604	2467.45
184.68	2480.68
184.756	2492.54
184.832	2497.92
184.908	2501.1
184.985	2501.87
185.061	2482.16
185.137	2494.49
185.213	2481.92
185.289	2481.59
185.365	2476.31
185.441	2477.83
185.517	2490.26
185.593	2487.98
185.669	2489.26
185.745	2500.07
185.822	2515.49
185.898	2505.01
185.974	2516.29
186.05	2510.63
186.126	2471.86
186.202	2464.63
186.278	2463.44
186.354	2453.05
186.43	2459.82
186.506	2455.82
186.582	2455.01
186.658	2467.29
186.734	2443.68
186.81	2447.49
186.886	2450.68
186.962	2461.77
187.038	2456.2
187.114	2451.58
187.19	2458.44
187.266	2444.25
187.341	2445.58
187.417	2440.87
187.493	2440.73
187.569	2439.82
187.645	2435.11
187.721	2423.83
187.797	2430.11
187.873	2432.68
187.949	2426.21
188.025	2419.92
188.101	2426.15
188.176	2429.44
188.252	2421.97
188.328	2432.05
188.404	2431.62
188.48	2425.63
188.556	2419.77
188.632	2421.58
188.707	2418.91
188.783	2414.15
188.859	2410.87
188.935	2399.11
189.011	2405.87
189.086	2399.58
189.162	2392.06
189.238	2389.59
189.314	2388.11
189.39	2382.87
189.465	2372.78
189.541	2388.78
189.617	2370.12
189.693	2362.84
189.768	2368.41
189.844	2397.65
189.92	2388.71
189.996	2398.23
190.071	2413.03
190.147	2409.51
190.223	2419.23
190.298	2414.46
190.374	2400.71
190.45	2413.75
190.526	2423.6
190.601	2417.99
190.677	2420.41
190.753	2451.42
190.828	2453.23
190.904	2470.57
190.98	2487.66
191.055	2502.19
191.131	2492.71
191.207	2515.61
191.282	2526.46
191.358	2514.18
191.433	2496.31
191.509	2513.59
191.585	2507.21
191.66	2507.45
191.736	2516.49
191.811	2507.59
191.887	2523.97
191.963	2549.83
192.038	2553.83
192.114	2554.97
192.189	2560.11
192.265	2558.07
192.34	2533.48
192.416	2533.24
192.491	2527.53
192.567	2527.34
192.642	2525.91
192.718	2529.19
192.793	2517.05
192.869	2512.58
192.944	2518.24
193.02	2527.86
193.095	2528.1
193.171	2534.81
193.246	2535.19
193.322	2533.96
193.397	2533.38
193.473	2516.14
193.548	2496.76
193.624	2506.43
193.699	2502.28
193.775	2519.01
193.85	2516.01
193.925	2527.3
194.001	2526.01
194.076	2519.39
194.152	2509.82
194.227	2502.25
194.302	2492.25
194.378	2496.77
194.453	2495.3
194.529	2505.39
194.604	2489.2
194.679	2484.72
194.755	2467.54
194.83	2480.4
194.905	2477.98
194.981	2485.93
195.056	2481.02
195.131	2488.45
195.207	2485.59
195.282	2476.6
195.357	2453.11
195.433	2471.63
195.508	2456.58
195.583	2467.2
195.659	2480.59
195.734	2490.59
195.809	2493.73
195.884	2503.49
195.96	2503.11
196.035	2519.01
196.11	2517.3
196.185	2528.58
196.261	2528.92
196.336	2564.11
196.411	2548.01
196.486	2551.87
196.561	2549.06
196.637	2555.63
196.712	2571.68
196.787	2570.63
196.862	2588.3
196.937	2603.58
197.013	2612.21
197.088	2623.64
197.163	2646.13
197.238	2664.91
197.313	2661.77
197.388	2677.25
197.464	2706.03
197.539	2719.04
197.614	2713.89
197.689	2728.62
197.764	2746.63
197.839	2774.64
197.914	2764.25
197.989	2791.51
198.065	2809.09
198.14	2862.94
198.215	2891.67
198.29	2906.64
198.365	2925.28
198.44	2936.33
198.515	2964.61
198.59	2982.15
198.665	3014.71
198.74	3027.02
198.815	3032.84
198.89	3059.92
198.965	3092.69
199.04	3090.16
199.115	3111.14
199.19	3160.64
199.265	3162.4
199.34	3173.42
199.415	3208.69
199.49	3234.19
199.565	3245.31
199.64	3269.73
199.715	3263.67
199.79	3275.21
199.865	3281.51
199.94	3282.65
200.015	3318.72
200.09	3326.03
200.165	3330.84
200.24	3336.38
200.315	3377.36
200.39	3391.73
200.464	3397.98
200.539	3400.6
200.614	3420.07
200.689	3443.03
200.764	3447.28
200.839	3469.22
200.914	3475.8
200.989	3466.63
201.063	3480.52
201.138	3459.44
201.213	3463.12
201.288	3444.32
201.363	3450.57
201.438	3452.38
201.512	3469.08
201.587	3448.41
201.662	3452.52
201.737	3468.6
201.812	3481.92
201.886	3446.43
201.961	3460.85
202.036	3449.83
202.111	3445.54
202.186	3414.34
202.26	3396.01
202.335	3372.72
202.41	3367.14
202.485	3353.49
202.559	3328.21
202.634	3303.3
202.709	3318.32
202.784	3299.04
202.858	3304.48
202.933	3284.2
203.008	3282.72
203.082	3265.45
203.157	3269.22
203.232	3231.55
203.306	3215.13
203.381	3185.01
203.456	3166.93
203.53	3147.21
203.605	3132.43
203.68	3118.26
203.754	3124.07
203.829	3120.54
203.904	3112.34
203.978	3112.43
204.053	3128.99
204.127	3133.47
204.202	3149.69
204.277	3147.88
204.351	3159.9
204.426	3171.64
204.5	3190.44
204.575	3177.37
204.65	3216.27
204.724	3238.38
204.799	3276.1
204.873	3305.13
204.948	3337.06
205.022	3361.2
205.097	3388.52
205.171	3446.61
205.246	3498.38
205.32	3542.48
205.395	3591.25
205.469	3629.81
205.544	3690.16
205.618	3728.57
205.693	3801.1
205.767	3848.54
205.842	3936.3
205.916	3997.38
205.991	4057.33
206.065	4132.16
206.14	4221.57
206.214	4290.19
206.289	4363.59
206.363	4455.68
206.438	4541.84
206.512	4636.9
206.586	4752.26
206.661	4856.58
206.735	4926.86
206.81	5023.84
206.884	5142.24
206.958	5233.31
207.033	5363.95
207.107	5478.17
207.181	5624.14
207.256	5733.72
207.33	5875.54
207.405	6006.19
207.479	6144.65
207.553	6273.43
207.628	6382.88
207.702	6526.31
207.776	6648.75
207.851	6780.23
207.925	6926.6
207.999	7060.89
208.073	7189.8
208.148	7324.33
208.222	7450.23
208.296	7618.7
208.371	7774.57
208.445	7929.18
208.519	8097.21
208.593	8249.79
208.668	8393.51
208.742	8541.22
208.816	8683.26
208.89	8837.96
208.965	8986.49
209.039	9143.49
209.113	9307.84
209.187	9478.68
209.261	9614.7
209.336	9784.65
209.41	9954.71
209.484	10106.06
209.558	10269.6
209.632	10434.24
209.707	10597.03
209.781	10763.73
209.855	10935.6
209.929	11102.82
210.003	11249.46
210.077	11397.31
210.151	11592.26
210.226	11770.29
210.3	11947.62
210.374	12124.02
210.448	12273
210.522	12420.5
210.596	12576.34
210.67	12728.99
210.744	12923.01
210.818	13107.24
210.892	13272.19
210.966	13398.59
211.041	13559.93
211.115	13701.65
211.189	13863.72
211.263	14018.17
211.337	14156.95
211.411	14303.15
211.485	14434.37
211.559	14575.75
211.633	14706.82
211.707	14805.44
211.781	14946.68
211.855	15026.16
211.929	15137.08
212.003	15234.93
212.077	15369.22
212.151	15505.78
212.225	15638.96
212.299	15746.1
212.373	15851.37
212.447	15964.06
212.52	16122.97
212.594	16241.05
212.668	16368.87
212.742	16474.04
212.816	16586.53
212.89	16695.65
212.964	16810.45
213.038	16922.26
213.112	17051.18
213.186	17177.4
213.26	17257.75
213.333	17310.76
213.407	17426.23
213.481	17534.81
213.555	17663.49
213.629	17752.26
213.703	17836.79
213.777	17942.57
213.85	18026.52
213.924	18162.76
213.998	18244.68
214.072	18334.75
214.146	18410.31
214.219	18494.21
214.293	18580.71
214.367	18673.38
214.441	18779.16
214.515	18856.75
214.588	18929.61
214.662	18987
214.736	19052.44
214.81	19144.05
214.883	19237.5
214.957	19315.27
215.031	19381.49
215.105	19431.65
215.178	19502.49
215.252	19565.14
215.326	19611.4
215.4	19654.82
215.473	19669.71
215.547	19734.34
215.621	19795.2
215.694	19879.01
215.768	19921.66
215.842	19969.12
215.915	20013.56
215.989	20045.89
216.063	20094.62
216.136	20139.96
216.21	20191.96
216.284	20249.46
216.357	20314.76
216.431	20375.53
216.504	20443.82
216.578	20536.83
216.652	20600.49
216.725	20653.7
216.799	20729.61
216.873	20775.15
216.946	20843.15
217.02	20894
217.093	20945.76
217.167	20970.15
217.24	20992.56
217.314	21042.1
217.387	21081.91
217.461	21120.47
217.535	21189.58
217.608	21231.08
217.682	21281.59
217.755	21347.24
217.829	21401.17
217.902	21447.16
217.976	21485.67
218.049	21516.42
218.123	21539.22
218.196	21594.36
218.27	21638.46
218.343	21656.44
218.417	21706.72
218.49	21748.56
218.563	21805.72
218.637	21849.3
218.71	21904.83
218.784	21956.46
218.857	22026.16
218.931	22086.27
219.004	22130.86
219.077	22178.15
219.151	22218.79
219.224	22255.28
219.298	22286.52
219.371	22323.69
219.444	22352.9
219.518	22401.83
219.591	22442.13
219.665	22508.04
219.738	22547.76
219.811	22575.1
219.885	22625.87
219.958	22662.75
220.031	22690.23
220.105	22738.68
220.178	22785.01
220.251	22818.43
220.325	22861.58
220.398	22879.08
220.471	22916.88
220.544	22962.3
220.618	22978.21
220.691	23010.08
220.764	23047.98
220.838	23082.74
220.911	23117.89
220.984	23179.13
221.057	23213.61
221.131	23238.88
221.204	23237.86
221.277	23285.22
221.35	23344.14
221.424	23361.84
221.497	23402.3
221.57	23429.16
221.643	23460.02
221.716	23486.25
221.79	23510.27
221.863	23533.32
221.936	23557.38
222.009	23576.53
222.082	23600.26
222.155	23617.47
222.229	23664.98
222.302	23689.76
222.375	23702.59
222.448	23726.51
222.521	23732.97
222.594	23731.82
222.667	23743.63
222.74	23775.94
222.814	23793.65
222.887	23796.78
222.96	23827.41
223.033	23843.23
223.106	23869.46
223.179	23879.64
223.252	23884.07
223.325	23893.29
223.398	23896.71
223.471	23911.9
223.544	23919.33
223.617	23932.45
223.69	23946.58
223.763	23936.84
223.837	23949.47
223.91	23975.37
223.983	23959.94
224.056	23952.13
224.129	23973.11
224.202	23996.98
224.275	23979.09
224.348	23954.97
224.42	23941.32
224.493	23920.63
224.566	23918.51
224.639	23922.94
224.712	23918.31
224.785	23921.5
224.858	23921.35
224.931	23913.68
225.004	23898.97
225.077	23898.2
225.15	23867.1
225.223	23858.17
225.296	23881.13
225.369	23860.97
225.442	23842.45
225.514	23848.43
225.587	23850.36
225.66	23851.47
225.733	23850.7
225.806	23860.59
225.879	23865.22
225.952	23863.05
226.025	23876.4
226.097	23890.15
226.17	23876.41
226.243	23855.38
226.316	23846.7
226.389	23844.09
226.461	23855.09
226.534	23857.11
226.607	23850.6
226.68	23862.66
226.753	23862.08
226.825	23830.39
226.898	23834.64
226.971	23827.06
227.044	23821.23
227.117	23811.78
227.189	23799.48
227.262	23794.03
227.335	23777.68
227.407	23755.3
227.48	23746.38
227.553	23743.68
227.626	23719.18
227.698	23714.55
227.771	23697.67
227.844	23673.65
227.916	23654.84
227.989	23619.98
228.062	23598.28
228.134	23615.01
228.207	23600.06
228.28	23578.36
228.352	23560.28
228.425	23542.77
228.498	23536.65
228.57	23515.14
228.643	23517.5
228.716	23496.33
228.788	23467.44
228.861	23458.67
228.934	23463.54
229.006	23449.89
229.079	23427.13
229.151	23407.5
229.224	23368.3
229.296	23366.9
229.369	23384.79
229.442	23384.84
229.514	23358.18
229.587	23354.75
229.659	23303.59
229.732	23295.24
229.804	23299.25
229.877	23316.51
229.949	23317.72
230.022	23321.04
230.094	23300.17
230.167	23279.14
230.239	23261.49
230.312	23245.53
230.384	23256.24
230.457	23239.7
230.529	23232.42
230.602	23210.91
230.674	23195.1
230.747	23196.88
230.819	23194.23
230.892	23137.57
230.964	23119.92
231.037	23113.85
231.109	23095.48
231.181	23079.86
231.254	23040.66
231.326	23016.36
231.399	22980.72
231.471	22953.82
231.544	22905.12
231.616	22901.74
231.688	22882.98
231.761	22849.38
231.833	22818.81
231.905	22761.92
231.978	22737.47
232.05	22696.01
232.122	22672.87
232.195	22646.11
232.267	22636.52
232.339	22598.43
232.412	22590.33
232.484	22561.35
232.556	22538.6
232.629	22538.45
232.701	22541.3
232.773	22536.28
232.846	22499.31
232.918	22479.49
232.99	22457.7
233.062	22444.78
233.135	22422.22
233.207	22376.37
233.279	22361.67
233.351	22349.91
233.424	22316.36
233.496	22280.54
233.568	22284.64
233.64	22251.04
233.713	22225.29
233.785	22196.47
233.857	22166.87
233.929	22127.58
234.001	22122.71
234.074	22105.7
234.146	22050.89
234.218	22003.26
234.29	21956.16
234.362	21922.09
234.434	21876.19
234.507	21832.86
234.579	21780.51
234.651	21743.3
234.723	21717.08
234.795	21694.95
234.867	21667.48
234.939	21665.12
235.012	21642.75
235.084	21604.53
235.156	21576.86
235.228	21541.53
235.3	21503.4
235.372	21480.7
235.444	21467.4
235.516	21411.87
235.588	21387.14
235.66	21362.61
235.732	21330.99
235.804	21364.49
235.876	21344.49
235.948	21323.86
236.02	21291.04
236.092	21268.48
236.164	21238.02
236.236	21210.26
236.308	21168.57
236.38	21132.28
236.452	21082.11
236.524	21045.72
236.596	21034.87
236.668	21018.15
236.74	20980.36
236.812	20960.51
236.884	20934.72
236.956	20891.15
237.028	20841.51
237.1	20790.67
237.172	20775.78
237.244	20762.19
237.316	20692.06
237.388	20652.49
237.46	20605.21
237.532	20588.58
237.604	20545.12
237.675	20523.57
237.747	20497.07
237.819	20462.56
237.891	20420.63
237.963	20379.04
238.035	20338.66
238.107	20258.71
238.178	20230.51
238.25	20196.83
238.322	20173.74
238.394	20120.88
238.466	20086.56
238.538	20066.85
238.609	20045.6
238.681	19974.18
238.753	19926.62
238.825	19885.56
238.897	19851.29
238.968	19840.64
239.04	19786.53
239.112	19781.08
239.184	19739.49
239.255	19700.02
239.327	19670.05
239.399	19636.22
239.471	19607.74
239.542	19583.89
239.614	19578.05
239.686	19513.72
239.758	19491.12
239.829	19434.11
239.901	19407.17
239.973	19369.68
240.044	19326.84
240.116	19286.75
240.188	19259.76
240.259	19219.04
240.331	19183.38
240.403	19159.14
240.474	19101.89
240.546	19059.58
240.618	18998.18
240.689	18949.18
240.761	18915.25
240.833	18891.97
240.904	18857.9
240.976	18817.52
241.048	18775.31
241.119	18738.15
241.191	18709.43
241.262	18686.01
241.334	18649.63
241.405	18606.55
241.477	18570.89
241.549	18536
241.62	18503.08
241.692	18475.71
241.763	18459.04
241.835	18420.29
241.906	18381.45
241.978	18328.34
242.049	18309.02
242.121	18282.08
242.192	18270.18
242.264	18221.75
242.335	18163.1
242.407	18136.88
242.478	18097.03
242.55	18064.11
242.621	18016.84
242.693	17974.91
242.764	17936.65
242.836	17894.24
242.907	17865.28
242.979	17830.15
243.05	17800.32
243.122	17774.48
243.193	17737.09
243.264	17671.35
243.336	17641.81
243.407	17612.51
243.479	17598.25
243.55	17565.09
243.622	17548.95
243.693	17507.36
243.764	17495.6
243.836	17451.79
243.907	17404.95
243.978	17371.11
244.05	17342.63
244.121	17290
244.192	17272.85
244.264	17206.05
244.335	17183.06
244.407	17137.33
244.478	17110.92
244.549	17077.13
244.62	17019.97
244.692	16983.11
244.763	16970
244.834	16922.57
244.906	16881.37
244.977	16852.5
245.048	16832.06
245.119	16780.21
245.191	16730.57
245.262	16668.59
245.333	16654.9
245.405	16629.02
245.476	16607.47
245.547	16578.51
245.618	16567.81
245.689	16529.4
245.761	16509.88
245.832	16469.34
245.903	16445.68
245.974	16411.75
246.045	16375.5
246.117	16365.24
246.188	16315.11
246.259	16255.01
246.33	16217.75
246.401	16178.23
246.473	16127.62
246.544	16091.04
246.615	16077.21
246.686	16041.39
246.757	16023.71
246.828	15981.43
246.899	15963.17
246.97	15901.66
247.042	15863.49
247.113	15830.52
247.184	15819.92
247.255	15783.34
247.326	15758.85
247.397	15723.37
247.468	15693.73
247.539	15659.08
247.61	15609.24
247.681	15592.9
247.752	15577.86
247.823	15533.41
247.894	15501.07
247.965	15464.15
248.037	15424.05
248.108	15368.47
248.179	15341.48
248.25	15305.71
248.321	15285.9
248.392	15245.22
248.463	15253.7
248.534	15209.98
248.605	15187.14
248.675	15153.88
248.746	15129.1
248.817	15098.54
248.888	15079.45
248.959	15029.18
249.03	15012.64
249.101	14985.46
249.172	14955.76
249.243	14907.08
249.314	14901.24
249.385	14881.09
249.456	14858.24
249.527	14827.3
249.598	14801.12
249.669	14764.15
249.739	14743.37
249.81	14714.36
249.881	14664.32
249.952	14629.56
250.023	14605.75
250.094	14565.02
250.165	14514.74
250.235	14483.84
250.306	14456.12
250.377	14408.21
250.448	14391.34
250.519	14338.79
250.59	14330.94
250.66	14296.85
250.731	14293.19
250.802	14268.08
250.873	14241.03
250.944	14222.57
251.014	14186.41
251.085	14189.89
251.156	14174.94
251.227	14170.46
251.297	14156.33
251.368	14147.75
251.439	14136.28
251.51	14124.33
251.58	14082.05
251.651	14054.43
251.722	14039.34
251.792	13984.09
251.863	13956.37
251.934	13949.67
252.005	13953.43
252.075	13922.82
252.146	13912.94
252.217	13899.2
252.287	13885.13
252.358	13861.7
252.429	13854.61
252.499	13824.43
252.57	13799.85
252.641	13786.25
252.711	13754.97
252.782	13723.44
252.852	13721.66
252.923	13687.29
252.994	13668.34
253.064	13658.36
253.135	13628.19
253.205	13601.29
253.276	13615.65
253.347	13614.06
253.417	13578.82
253.488	13549.85
253.558	13523.43
253.629	13496.92
253.699	13480.1
253.77	13465.78
253.841	13437.09
253.911	13415.84
253.982	13396.12
254.052	13379.83
254.123	13364.59
254.193	13336.15
254.264	13345.21
254.334	13311.18
254.405	13287.08
254.475	13252.56
254.546	13233.95
254.616	13234.29
254.687	13226.63
254.757	13203.58
254.827	13179.24
254.898	13165.64
254.968	13146.31
255.039	13117.34
255.109	13104.52
255.18	13069.18
255.25	13014.66
255.321	13002.23
255.391	12972.43
255.461	12980.39
255.532	12929.92
255.602	12900.46
255.673	12855.63
255.743	12825.94
255.813	12774.6
255.884	12757.29
255.954	12738.15
256.024	12739.84
256.095	12718.73
256.165	12676.89
256.235	12663.1
256.306	12630.71
256.376	12621.45
256.446	12606.75
256.517	12590.79
256.587	12582.89
256.657	12566.5
256.728	12553.34
256.798	12537.77
256.868	12500.89
256.938	12466.91
257.009	12457.6
257.079	12443.86
257.149	12455.96
257.219	12414.17
257.29	12404.63
257.36	12367.12
257.43	12366.59
257.5	12316.27
257.571	12290.63
257.641	12272.89
257.711	12232.69
257.781	12228.59
257.852	12213.36
257.922	12181.35
257.992	12164.28
258.062	12144.71
258.132	12130.16
258.202	12114.39
258.273	12098.49
258.343	12101.52
258.413	12080.56
258.483	12064.99
258.553	12035.58
258.623	12012.21
258.693	11998.03
258.764	11997.22
258.834	11997.75
258.904	11973.45
258.974	11954.32
259.044	11931.42
259.114	11918.12
259.184	11913.2
259.254	11889.58
259.324	11845.34
259.394	11829
259.464	11825.91
259.535	11803.64
259.605	11779.54
259.675	11748.79
259.745	11731.01
259.815	11702.14
259.885	11671.39
259.955	11681.12
260.025	11651.19
260.095	11628.93
260.165	11623.96
260.235	11628.2
260.305	11592.06
260.375	11557.26
260.445	11563.96
260.515	11559.81
260.585	11564.29
260.655	11543.91
260.725	11539.13
260.795	11533.5
260.865	11538.36
260.934	11513.35
261.004	11500.77
261.074	11485.39
261.144	11489.39
261.214	11486.36
261.284	11466.12
261.354	11462.55
261.424	11440.62
261.494	11451.22
261.564	11433.53
261.634	11421.15
261.703	11378.11
261.773	11380.08
261.843	11373.43
