Data from 20250703_urea_0.1M_MAYP1162681_08-21-05-625.txt Node
Date: Fri Jul 04 08:21:05 BST 2025
User: adleo
Spectrometer: MAYP116268
Trigger mode: 0
Integration Time (sec): 1.000000E0
Scans to average: 1
Electric dark correction enabled: true
Nonlinearity correction enabled: true
Boxcar width: 10
XAxis mode: Wavelengths
Number of Pixels in Spectrum: 2068
>>>>>Begin Spectral Data<<<<<
179.565	1239.63
179.642	1296.63
179.718	1339.87
179.795	1377.36
179.871	1411.12
179.948	1429.67
180.024	1451.62
180.101	1475.07
180.177	1491.75
180.254	1514.99
180.33	1538.68
180.407	1593.23
180.483	1690.53
180.56	1783.66
180.636	1869.83
180.712	1856.46
180.789	1866.64
180.865	1878.99
180.942	1888.4
181.018	1897.81
181.095	1910.27
181.171	1914.36
181.248	1914.55
181.324	1930.53
181.4	1938.9
181.477	1950.69
181.553	1963.95
181.63	1985.59
181.706	1998.1
181.782	2000.67
181.859	2000.48
181.935	2004.9
182.011	1999.86
182.088	2016.6
182.164	2031.78
182.24	2045.28
182.317	2054.93
182.393	2054.17
182.469	2069.1
182.546	2084.85
182.622	2091.22
182.698	2083.9
182.775	2094.22
182.851	2108.1
182.927	2100.83
183.003	2097.26
183.08	2091.65
183.156	2101.16
183.232	2094.69
183.308	2085.23
183.385	2099.49
183.461	2117.71
183.537	2117.43
183.613	2132.65
183.69	2124.18
183.766	2115.33
183.842	2123.42
183.918	2128.17
183.995	2143.25
184.071	2144.87
184.147	2135.59
184.223	2123.42
184.299	2136.22
184.375	2127.85
184.452	2137.03
184.528	2186.7
184.604	2197.74
184.68	2209.39
184.756	2215.25
184.832	2222.62
184.908	2227.85
184.985	2225.57
185.061	2207.3
185.137	2217.86
185.213	2206.11
185.289	2206.21
185.365	2201.26
185.441	2199.27
185.517	2209.12
185.593	2203.45
185.669	2200.84
185.745	2211.11
185.822	2229.38
185.898	2223.43
185.974	2233.7
186.05	2225.18
186.126	2189.69
186.202	2182.03
186.278	2176.08
186.354	2165.76
186.43	2171.95
186.506	2170.9
186.582	2170.57
186.658	2178.18
186.734	2156.01
186.81	2158.63
186.886	2160.15
186.962	2171.8
187.038	2168.71
187.114	2163.43
187.19	2170.33
187.266	2158.72
187.341	2162.2
187.417	2152.73
187.493	2151.11
187.569	2153.49
187.645	2146.02
187.721	2132.51
187.797	2139.69
187.873	2146.16
187.949	2141.69
188.025	2133.65
188.101	2136.69
188.176	2141.69
188.252	2137.69
188.328	2149.53
188.404	2149.34
188.48	2144.02
188.556	2135.93
188.632	2138.35
188.707	2134.88
188.783	2131.41
188.859	2128.32
188.935	2114.09
189.011	2120.65
189.086	2115.57
189.162	2104.01
189.238	2101.1
189.314	2101.49
189.39	2096.2
189.465	2087.74
189.541	2103.1
189.617	2091.16
189.693	2087.41
189.768	2088.79
189.844	2113.68
189.92	2103.26
189.996	2112.68
190.071	2127.28
190.147	2129.62
190.223	2134.47
190.298	2129.33
190.374	2116.87
190.45	2126
190.526	2136.85
190.601	2133.61
190.677	2134.7
190.753	2166.55
190.828	2169.78
190.904	2184.96
190.98	2200.81
191.055	2211.84
191.131	2202.23
191.207	2219.26
191.282	2231.25
191.358	2223.16
191.433	2209.03
191.509	2221.06
191.585	2218.82
191.66	2219.44
191.736	2225.43
191.811	2218.73
191.887	2236.43
191.963	2259.74
192.038	2267.78
192.114	2267.74
192.189	2273.45
192.265	2270.64
192.34	2245.65
192.416	2244.84
192.491	2241.27
192.567	2241.27
192.642	2244.31
192.718	2247.5
192.793	2234.75
192.869	2228.75
192.944	2229.9
193.02	2234.8
193.095	2241.84
193.171	2247.88
193.246	2245.74
193.322	2243.55
193.397	2244.27
193.473	2229.99
193.548	2213.76
193.624	2221.85
193.699	2221.38
193.775	2235.94
193.85	2235.89
193.925	2243.6
194.001	2245.89
194.076	2235.28
194.152	2226.52
194.227	2219.48
194.302	2211.67
194.378	2219.57
194.453	2215.53
194.529	2229.47
194.604	2216.72
194.679	2208.01
194.755	2188.27
194.83	2197.27
194.905	2192.41
194.981	2202.12
195.056	2197.7
195.131	2201.08
195.207	2198.65
195.282	2186.71
195.357	2166.96
195.433	2184.56
195.508	2176.04
195.583	2180.66
195.659	2198.83
195.734	2206.78
195.809	2203.79
195.884	2207.83
195.96	2207.88
196.035	2225.86
196.11	2222.01
196.185	2234.43
196.261	2236.28
196.336	2267.83
196.411	2257.22
196.486	2265.02
196.561	2256.02
196.637	2262.3
196.712	2280.87
196.787	2284.2
196.862	2299.43
196.937	2308.8
197.013	2315.27
197.088	2324.84
197.163	2348.45
197.238	2365.98
197.313	2366.7
197.388	2382.26
197.464	2413.92
197.539	2424.77
197.614	2418.3
197.689	2429.77
197.764	2446.44
197.839	2468.72
197.914	2460.72
197.989	2481.91
198.065	2495.52
198.14	2547.45
198.215	2575.17
198.29	2587.75
198.365	2597.46
198.44	2613.7
198.515	2645.19
198.59	2657.91
198.665	2686.34
198.74	2694.16
198.815	2692.3
198.89	2715.55
198.965	2744.14
199.04	2740.9
199.115	2755.14
199.19	2797.55
199.265	2800.59
199.34	2808.46
199.415	2840.97
199.49	2862.83
199.565	2873.32
199.64	2895.48
199.715	2890.99
199.79	2898.48
199.865	2905.96
199.94	2910.3
200.015	2941.38
200.09	2947.87
200.165	2954.4
200.24	2961.03
200.315	3001.96
200.39	3019.94
200.464	3024.56
200.539	3026.57
200.614	3045.49
200.689	3068.04
200.764	3073.1
200.839	3092.21
200.914	3097.55
200.989	3088.39
201.063	3102.31
201.138	3087.54
201.213	3090.98
201.288	3074.57
201.363	3081.53
201.438	3079.82
201.512	3092.21
201.587	3071.75
201.662	3074.71
201.737	3089.11
201.812	3095.79
201.886	3059.95
201.961	3070.73
202.036	3059.63
202.111	3057.86
202.186	3028.27
202.26	3015.68
202.335	2993.98
202.41	2990.74
202.485	2977.44
202.559	2963.28
202.634	2941.54
202.709	2951.36
202.784	2935.44
202.858	2936.06
202.933	2916.85
203.008	2913.41
203.082	2898.07
203.157	2903.45
203.232	2863.52
203.306	2845.4
203.381	2819.8
203.456	2802.22
203.53	2782.8
203.605	2768.04
203.68	2751.59
203.754	2754.4
203.829	2744.2
203.904	2733.53
203.978	2729.38
204.053	2741.58
204.127	2735.63
204.202	2747.07
204.277	2743.16
204.351	2747.5
204.426	2754.93
204.5	2761.79
204.575	2744.26
204.65	2771.58
204.724	2782.69
204.799	2812.08
204.873	2827.86
204.948	2846.64
205.022	2860.56
205.097	2876.97
205.171	2919.48
205.246	2956.54
205.32	2983.38
205.395	3016.57
205.469	3040.59
205.544	3080.95
205.618	3101.32
205.693	3156.81
205.767	3180.95
205.842	3240.4
205.916	3278.04
205.991	3309.78
206.065	3363.76
206.14	3428.49
206.214	3472.29
206.289	3515.75
206.363	3582.89
206.438	3644.99
206.512	3712.3
206.586	3788.09
206.661	3854.48
206.735	3895.56
206.81	3955.13
206.884	4033.64
206.958	4081.09
207.033	4164.1
207.107	4237.68
207.181	4336.65
207.256	4395.49
207.33	4486.95
207.405	4580.7
207.479	4675.17
207.553	4762.22
207.628	4821.65
207.702	4911.46
207.776	4987.27
207.851	5072.04
207.925	5171.92
207.999	5245.27
208.073	5323.62
208.148	5417.56
208.222	5494.65
208.296	5613.03
208.371	5726.63
208.445	5827.63
208.519	5948.7
208.593	6051.98
208.668	6137.87
208.742	6234.03
208.816	6328.55
208.89	6437.87
208.965	6524.86
209.039	6624.36
209.113	6734.95
209.187	6850.07
209.261	6940.06
209.336	7049.78
209.41	7165.05
209.484	7249.84
209.558	7374.99
209.632	7491.88
209.707	7600.29
209.781	7717.55
209.855	7835.42
209.929	7940.49
210.003	8039.71
210.077	8127.53
210.151	8266.64
210.226	8403.38
210.3	8525.2
210.374	8642.92
210.448	8739.47
210.522	8844.83
210.596	8951.69
210.67	9051.56
210.744	9193.2
210.818	9314.06
210.892	9432.7
210.966	9519.03
211.041	9632.87
211.115	9716.51
211.189	9826.95
211.263	9927.13
211.337	10023.12
211.411	10117.63
211.485	10207.15
211.559	10305.75
211.633	10408.05
211.707	10467.85
211.781	10554.49
211.855	10610.67
211.929	10689.49
212.003	10756.94
212.077	10852.98
212.151	10946.75
212.225	11045.92
212.299	11117.97
212.373	11198.74
212.447	11276.14
212.52	11389.01
212.594	11473.16
212.668	11565.6
212.742	11633.94
212.816	11710.91
212.89	11791.74
212.964	11872.43
213.038	11955.38
213.112	12052.41
213.186	12139.27
213.26	12194.02
213.333	12229.01
213.407	12310.33
213.481	12387.16
213.555	12476.24
213.629	12536.83
213.703	12598.15
213.777	12676.29
213.85	12733.7
213.924	12835.41
213.998	12914.42
214.072	12976.56
214.146	13041.59
214.219	13113.99
214.293	13173.72
214.367	13245.36
214.441	13318.48
214.515	13369.54
214.588	13402.56
214.662	13435.34
214.736	13484.85
214.81	13561.4
214.883	13633.22
214.957	13682.68
215.031	13741.69
215.105	13784.11
215.178	13834.87
215.252	13890.45
215.326	13918.32
215.4	13958.33
215.473	13975.01
215.547	14009.57
215.621	14060.28
215.694	14117.12
215.768	14149.66
215.842	14198.58
215.915	14233.24
215.989	14263.47
216.063	14314.23
216.136	14372.85
216.21	14425.29
216.284	14491.05
216.357	14553.71
216.431	14613
216.504	14674.95
216.578	14750.05
216.652	14810.59
216.725	14866.27
216.799	14928.16
216.873	14984.22
216.946	15046.26
217.02	15092.92
217.093	15140.35
217.167	15162.04
217.24	15197.14
217.314	15239.51
217.387	15286.21
217.461	15334.66
217.535	15401.51
217.608	15440.85
217.682	15496.81
217.755	15553.3
217.829	15594.17
217.902	15633.12
217.976	15674.52
218.049	15708.84
218.123	15748.32
218.196	15798.78
218.27	15840.91
218.343	15873.3
218.417	15918.56
218.49	15961.41
218.563	16020.4
218.637	16073.66
218.71	16153.28
218.784	16214.64
218.857	16281.92
218.931	16331.81
219.004	16383.67
219.077	16431.96
219.151	16483
219.224	16520.16
219.298	16572.79
219.371	16631.69
219.444	16668.08
219.518	16712.32
219.591	16770.06
219.665	16838.35
219.738	16892.47
219.811	16935.61
219.885	16991.9
219.958	17046.7
220.031	17098.89
220.105	17152
220.178	17199.28
220.251	17235.71
220.325	17280.73
220.398	17324.2
220.471	17380.68
220.544	17429.74
220.618	17463.04
220.691	17503.91
220.764	17553.07
220.838	17603.52
220.911	17637.55
220.984	17708.15
221.057	17772.87
221.131	17816.58
221.204	17821.06
221.277	17883.47
221.35	17951.18
221.424	17981.01
221.497	18027.56
221.57	18071.37
221.643	18115.7
221.716	18163.22
221.79	18195.17
221.863	18229.09
221.936	18270.73
222.009	18306.44
222.082	18353.62
222.155	18389.76
222.229	18451.49
222.302	18502.19
222.375	18535.87
222.448	18586.86
222.521	18617.7
222.594	18641.22
222.667	18668.25
222.74	18719.67
222.814	18734.76
222.887	18768.1
222.96	18823.23
223.033	18867.81
223.106	18896.14
223.179	18936.14
223.252	18969.82
223.325	19006.88
223.398	19031.99
223.471	19059.8
223.544	19079.94
223.617	19109.82
223.69	19150.3
223.763	19165.28
223.837	19192.37
223.91	19223.83
223.983	19229.86
224.056	19241.71
224.129	19272.55
224.202	19307.01
224.275	19329.75
224.348	19353.27
224.42	19355.34
224.493	19353.37
224.566	19365.66
224.639	19398.62
224.712	19410.86
224.785	19429.12
224.858	19434.71
224.931	19456.35
225.004	19474.08
225.077	19503.77
225.15	19498.27
225.223	19510.9
225.296	19556.34
225.369	19556.25
225.442	19557.55
225.514	19579.23
225.587	19595.67
225.66	19615.62
225.733	19640.82
225.806	19656.24
225.879	19672.96
225.952	19687.23
226.025	19718.36
226.097	19758.45
226.17	19774.6
226.243	19770.65
226.316	19779.56
226.389	19813.87
226.461	19833.29
226.534	19852.04
226.607	19868.18
226.68	19911.27
226.753	19935.31
226.825	19913.24
226.898	19948.47
226.971	19967.99
227.044	19981.19
227.117	20002.93
227.189	20015.74
227.262	20038.64
227.335	20055.17
227.407	20058.59
227.48	20068.56
227.553	20083.74
227.626	20073.86
227.698	20077.81
227.771	20099.89
227.844	20098.87
227.916	20103.21
227.989	20095.45
228.062	20102.73
228.134	20141.19
228.207	20149.38
228.28	20141.67
228.352	20154.1
228.425	20148.22
228.498	20164.99
228.57	20164.17
228.643	20181.04
228.716	20182.39
228.788	20171.84
228.861	20168.32
228.934	20186.44
229.006	20192.61
229.079	20194.2
229.151	20179.89
229.224	20165.24
229.296	20166.25
229.369	20200.03
229.442	20220.22
229.514	20224.66
229.587	20243.74
229.659	20218.25
229.732	20216.08
229.804	20236.94
229.877	20264.51
229.949	20284.37
230.022	20308.41
230.094	20311.45
230.167	20312.41
230.239	20311.45
230.312	20315.21
230.384	20340.46
230.457	20346.68
230.529	20352.8
230.602	20359.31
230.674	20379.59
230.747	20397.52
230.819	20413.38
230.892	20384.32
230.964	20378.77
231.037	20378.97
231.109	20365.33
231.181	20369.62
231.254	20353.96
231.326	20339.4
231.399	20332.46
231.471	20313.23
231.544	20280.51
231.616	20294.2
231.688	20297.81
231.761	20287.93
231.833	20276.32
231.905	20250.73
231.978	20244.12
232.05	20233.47
232.122	20225.86
232.195	20215.64
232.267	20226.63
232.339	20207.11
232.412	20217.23
232.484	20201.62
232.556	20192.22
232.629	20212.7
232.701	20219.5
232.773	20214.29
232.846	20210.29
232.918	20201.96
232.99	20200.8
233.062	20204.03
233.135	20191.89
233.207	20167.31
233.279	20168.75
233.351	20164.42
233.424	20146.25
233.496	20122.87
233.568	20135.26
233.64	20106.06
233.713	20094.15
233.785	20075.02
233.857	20062.88
233.929	20033.96
234.001	20040.18
234.074	20049.53
234.146	20007.5
234.218	19983.07
234.29	19971.7
234.362	19948.61
234.434	19913.24
234.507	19883.56
234.579	19842.98
234.651	19820.52
234.723	19806.6
234.795	19787.42
234.867	19770.31
234.939	19770.16
235.012	19760.43
235.084	19738.7
235.156	19727.85
235.228	19697.69
235.3	19670.31
235.372	19651.86
235.444	19639.23
235.516	19603.76
235.588	19583.96
235.66	19563.19
235.732	19529.31
235.804	19562.03
235.876	19556.92
235.948	19557.65
236.02	19536.63
236.092	19520.59
236.164	19501.79
236.236	19478.61
236.308	19446.52
236.38	19430.42
236.452	19395.44
236.524	19372.98
236.596	19368.98
236.668	19357.32
236.74	19330.86
236.812	19313.37
236.884	19303.68
236.956	19286.53
237.028	19244.7
237.1	19207.31
237.172	19206.15
237.244	19194.78
237.316	19135.02
237.388	19091.26
237.46	19050.83
237.532	19039.65
237.604	19009.53
237.675	19002.02
237.747	18987.61
237.819	18966.45
237.891	18935.32
237.963	18903.56
238.035	18862.41
238.107	18796
238.178	18776.1
238.25	18750.85
238.322	18741.21
238.394	18686.18
238.466	18651.82
238.538	18626.52
238.609	18605.17
238.681	18551.83
238.753	18520.02
238.825	18487.06
238.897	18471.01
238.968	18469.52
239.04	18429.86
239.112	18426.82
239.184	18378.39
239.255	18339.64
239.327	18308.37
239.399	18284.47
239.471	18268.18
239.542	18248.56
239.614	18238.11
239.686	18187.46
239.758	18177.72
239.829	18135.17
239.901	18123.85
239.973	18097.49
240.044	18073.68
240.116	18049.83
240.188	18015.9
240.259	17978.7
240.331	17945.69
240.403	17913.25
240.474	17852.63
240.546	17812.92
240.618	17764.77
240.689	17730.32
240.761	17700
240.833	17691.52
240.904	17648.49
240.976	17610.22
241.048	17590.27
241.119	17569.74
241.191	17543.91
241.262	17524.97
241.334	17491.91
241.405	17468.39
241.477	17424.59
241.549	17398.71
241.62	17367
241.692	17335.77
241.763	17326.95
241.835	17290.95
241.906	17261.02
241.978	17223.81
242.049	17213.26
242.121	17188.39
242.192	17179.28
242.264	17130.17
242.335	17072.68
242.407	17047.42
242.478	17016.24
242.55	16982.31
242.621	16934.07
242.693	16902.65
242.764	16854.16
242.836	16819.9
242.907	16783.08
242.979	16769.44
243.05	16746.69
243.122	16712.13
243.193	16683.36
243.264	16626.97
243.336	16598.05
243.407	16577.57
243.479	16564.99
243.55	16531.59
243.622	16503.88
243.693	16452.98
243.764	16442.43
243.836	16397.84
243.907	16362.18
243.978	16325.69
244.05	16300.05
244.121	16250.6
244.192	16223.9
244.264	16174.93
244.335	16142.73
244.407	16095.11
244.478	16055.3
244.549	16017.61
244.62	15973.46
244.692	15946.61
244.763	15917.02
244.834	15879.95
244.906	15831.42
244.977	15795.27
245.048	15782.64
245.119	15746.44
245.191	15711.83
245.262	15661.85
245.333	15657.46
245.405	15640.45
245.476	15616.3
245.547	15585.26
245.618	15563.18
245.689	15528
245.761	15509.92
245.832	15480.47
245.903	15464.37
245.974	15438.44
246.045	15397.47
246.117	15381.37
246.188	15331.09
246.259	15293.25
246.33	15259.08
246.401	15222.78
246.473	15187.54
246.544	15141.13
246.615	15114.13
246.686	15085.02
246.757	15068.1
246.828	15021.25
246.899	15000.08
246.97	14947.88
247.042	14910.18
247.113	14891
247.184	14883.58
247.255	14849.69
247.326	14819.47
247.397	14772.18
247.468	14741.04
247.539	14716.21
247.61	14677.55
247.681	14663.52
247.752	14646.22
247.823	14610.16
247.894	14590.06
247.965	14542.53
248.037	14512.35
248.108	14468.87
248.179	14431.85
248.25	14399.12
248.321	14377.91
248.392	14337.56
248.463	14339.3
248.534	14303.38
248.605	14290.03
248.675	14259.95
248.746	14241.3
248.817	14222.59
248.888	14210.49
248.959	14163.73
249.03	14144.26
249.101	14117.07
249.172	14082.75
249.243	14033.96
249.314	14019.4
249.385	13997.57
249.456	13979.2
249.527	13946.28
249.598	13927.09
249.669	13912.92
249.739	13888.43
249.81	13874.3
249.881	13834.68
249.952	13805.22
250.023	13783.39
250.094	13730.36
250.165	13697.87
250.235	13662.2
250.306	13630.43
250.377	13589.45
250.448	13578.7
250.519	13531.89
250.59	13520.95
250.66	13495.02
250.731	13485.52
250.802	13457.37
250.873	13427.96
250.944	13412.73
251.014	13385.78
251.085	13383.32
251.156	13354.49
251.227	13347.99
251.297	13330.53
251.368	13313.66
251.439	13304.94
251.51	13295.34
251.58	13267.62
251.651	13228.1
251.722	13213.59
251.792	13166.1
251.863	13144.02
251.934	13134.14
252.005	13141.85
252.075	13113.36
252.146	13100.01
252.217	13092.2
252.287	13085.74
252.358	13058.84
252.429	13053.25
252.499	13022.93
252.57	13003.41
252.641	12994.49
252.711	12964.02
252.782	12920.35
252.852	12916.59
252.923	12882.79
252.994	12854.79
253.064	12846.16
253.135	12814.49
253.205	12789.66
253.276	12788.31
253.347	12790.14
253.417	12754.76
253.488	12726.56
253.558	12701.25
253.629	12680.48
253.699	12659.17
253.77	12636.95
253.841	12619.83
253.911	12591.59
253.982	12574.09
254.052	12557.41
254.123	12538.56
254.193	12517.54
254.264	12535.19
254.334	12500.14
254.405	12468.23
254.475	12430.78
254.546	12403.11
254.616	12404.51
254.687	12390
254.757	12377.42
254.827	12350.23
254.898	12338.76
254.968	12312.05
255.039	12286.6
255.109	12274.21
255.18	12242.45
255.25	12203.11
255.321	12188.03
255.391	12156.16
255.461	12160.79
255.532	12112.78
255.602	12085.5
255.673	12046.02
255.743	12008.33
255.813	11972.51
255.884	11965.91
255.954	11962.05
256.024	11963.36
256.095	11940.22
256.165	11907.54
256.235	11892.6
256.306	11866.47
256.376	11860.2
256.446	11855.48
256.517	11842.95
256.587	11831.62
256.657	11815.57
256.728	11805.16
256.798	11783.04
256.868	11761.54
256.938	11730.89
257.009	11729.68
257.079	11714.31
257.149	11730.5
257.219	11694.3
257.29	11672.52
257.36	11630.49
257.43	11622.59
257.5	11581.67
257.571	11555.88
257.641	11542.77
257.711	11510.58
257.781	11499.35
257.852	11483.01
257.922	11440.07
257.992	11418.09
258.062	11393.12
258.132	11387.15
258.202	11362.86
258.273	11353.7
258.343	11353.51
258.413	11326.52
258.483	11299.33
258.553	11266.03
258.623	11233.11
258.693	11228.25
258.764	11233.31
258.834	11241.21
258.904	11225.31
258.974	11197.93
259.044	11186.66
259.114	11176.34
259.184	11157.65
259.254	11135.33
259.324	11090.32
259.394	11074.37
259.464	11074.61
259.535	11053.46
259.605	11023.43
259.675	10999.29
259.745	10978.81
259.815	10951.53
259.885	10929.08
259.955	10944.55
260.025	10919.64
260.095	10900.02
260.165	10886.05
260.235	10878.77
260.305	10857.52
260.375	10820.37
260.445	10831.55
260.515	10824.08
260.585	10820.8
260.655	10811.26
260.725	10805.67
260.795	10800.9
260.865	10816.75
260.934	10786.25
261.004	10779.7
261.074	10765.77
261.144	10763.27
261.214	10760.71
261.284	10743.41
261.354	10738.98
261.424	10710.69
261.494	10722.5
261.564	10711.12
261.634	10703.03
261.703	10677.44
261.773	10657.35
261.843	10661.3
261.913	10641.5
261.983	10614.13
