Data from 20250703_urea_0.1M_MAYP1162681_05-51-05-328.txt Node
Date: Fri Jul 04 05:51:05 BST 2025
User: adleo
Spectrometer: MAYP116268
Trigger mode: 0
Integration Time (sec): 1.000000E0
Scans to average: 1
Electric dark correction enabled: true
Nonlinearity correction enabled: true
Boxcar width: 10
XAxis mode: Wavelengths
Number of Pixels in Spectrum: 2068
>>>>>Begin Spectral Data<<<<<
179.565	1258.67
179.642	1314.94
179.718	1363.02
179.795	1405.15
179.871	1439.8
179.948	1456.96
180.024	1477.8
180.101	1501.31
180.177	1515.41
180.254	1541.58
180.33	1563.64
180.407	1619.9
180.483	1718.29
180.56	1812.61
180.636	1901.87
180.712	1886.17
180.789	1897.96
180.865	1909.89
180.942	1916.74
181.018	1930.43
181.095	1943.41
181.171	1947.22
181.248	1950.31
181.324	1963.91
181.4	1968.62
181.477	1976.37
181.553	1990.11
181.63	2012.98
181.706	2030.53
181.782	2039.61
181.859	2034.86
181.935	2040.33
182.011	2039.85
182.088	2057.64
182.164	2077.29
182.24	2087.51
182.317	2098.5
182.393	2096.6
182.469	2111.06
182.546	2124.75
182.622	2127.23
182.698	2123.09
182.775	2132.84
182.851	2145.83
182.927	2137.69
183.003	2132.65
183.08	2129.46
183.156	2137.79
183.232	2132.32
183.308	2120.19
183.385	2128.08
183.461	2147.25
183.537	2149.58
183.613	2162.09
183.69	2152.87
183.766	2141.78
183.842	2151.01
183.918	2154.15
183.995	2166.13
184.071	2169.61
184.147	2165.71
184.223	2152.01
184.299	2167.76
184.375	2158.53
184.452	2167.01
184.528	2218.83
184.604	2232.1
184.68	2243.61
184.756	2252.98
184.832	2260.03
184.908	2261.12
184.985	2261.88
185.061	2246.28
185.137	2252.7
185.213	2238.38
185.289	2240.81
185.365	2233.1
185.441	2232.05
185.517	2247.71
185.593	2244.57
185.669	2240.72
185.745	2250.23
185.822	2266.69
185.898	2256.41
185.974	2263.73
186.05	2252.98
186.126	2217.86
186.202	2211.53
186.278	2208.91
186.354	2198.73
186.43	2205.87
186.506	2206.63
186.582	2204.44
186.658	2210.91
186.734	2192.88
186.81	2195.45
186.886	2198.26
186.962	2211.39
187.038	2209.68
187.114	2200.58
187.19	2206.39
187.266	2196.92
187.341	2194.73
187.417	2191.45
187.493	2194.31
187.569	2199.49
187.645	2192.12
187.721	2177.22
187.797	2182.93
187.873	2187.17
187.949	2182.89
188.025	2174.84
188.101	2178.27
188.176	2183.21
188.252	2179.31
188.328	2187.87
188.404	2189.06
188.48	2183.45
188.556	2174.27
188.632	2169.89
188.707	2173.36
188.783	2171.84
188.859	2167.7
188.935	2161.76
189.011	2169.46
189.086	2160.28
189.162	2151.81
189.238	2150.77
189.314	2150.48
189.39	2146.91
189.465	2139.11
189.541	2154.62
189.617	2137.97
189.693	2135.17
189.768	2139.5
189.844	2163.91
189.92	2155.88
189.996	2166.01
190.071	2178.29
190.147	2180.81
190.223	2190.23
190.298	2180.05
190.374	2166.34
190.45	2177
190.526	2184.99
190.601	2177.14
190.677	2180.9
190.753	2207.41
190.828	2212.36
190.904	2229.16
190.98	2241.77
191.055	2252.1
191.131	2242.91
191.207	2264.37
191.282	2271.26
191.358	2262.46
191.433	2246.23
191.509	2256.74
191.585	2253.6
191.66	2254.03
191.736	2261.97
191.811	2254.07
191.887	2271.11
191.963	2296.72
192.038	2303.47
192.114	2302.28
192.189	2307.28
192.265	2303.05
192.34	2281.96
192.416	2280.91
192.491	2278.96
192.567	2279.39
192.642	2284.05
192.718	2285.29
192.793	2273.82
192.869	2270.49
192.944	2274.29
193.02	2283.96
193.095	2289.95
193.171	2293.33
193.246	2294.24
193.322	2289.95
193.397	2291.33
193.473	2276.43
193.548	2257.73
193.624	2260.63
193.699	2259.54
193.775	2275.96
193.85	2275.2
193.925	2285.62
194.001	2285.91
194.076	2274.68
194.152	2268.82
194.227	2259.35
194.302	2248.93
194.378	2250.65
194.453	2247.98
194.529	2261.21
194.604	2246.22
194.679	2238.8
194.755	2221.86
194.83	2232.48
194.905	2230.77
194.981	2237.86
195.056	2231.77
195.131	2238.91
195.207	2240.19
195.282	2232.34
195.357	2211.64
195.433	2227.81
195.508	2215.15
195.583	2221.2
195.659	2236.24
195.734	2243.9
195.809	2245.66
195.884	2258.98
195.96	2261.17
196.035	2276.59
196.11	2269.87
196.185	2281.87
196.261	2287.62
196.336	2321.6
196.411	2308.61
196.486	2315.75
196.561	2312.46
196.637	2322.6
196.712	2341.31
196.787	2343.88
196.862	2359.25
196.937	2371.77
197.013	2378.81
197.088	2389.28
197.163	2412.28
197.238	2432.43
197.313	2430.01
197.388	2444.72
197.464	2473.2
197.539	2483.1
197.614	2475.29
197.689	2488.63
197.764	2505.1
197.839	2522.19
197.914	2512.72
197.989	2533.34
198.065	2546.76
198.14	2596.99
198.215	2621.28
198.29	2629.57
198.365	2642.62
198.44	2651.76
198.515	2679.64
198.59	2692.83
198.665	2717.03
198.74	2722.41
198.815	2724.46
198.89	2747
198.965	2774.02
199.04	2769.64
199.115	2786.26
199.19	2829.85
199.265	2834
199.34	2843.58
199.415	2881.86
199.49	2903.06
199.565	2916.17
199.64	2939.29
199.715	2937.09
199.79	2947.68
199.865	2953.64
199.94	2954.64
200.015	2987.96
200.09	2994.78
200.165	3004.41
200.24	3012.09
200.315	3055.98
200.39	3066.81
200.464	3077.73
200.539	3081.59
200.614	3096.9
200.689	3122.98
200.764	3132.52
200.839	3150.64
200.914	3158.5
200.989	3147.29
201.063	3166.13
201.138	3146.59
201.213	3147.31
201.288	3125.51
201.363	3129.33
201.438	3131.43
201.512	3145.54
201.587	3126.6
201.662	3129.7
201.737	3142.01
201.812	3151.45
201.886	3117.28
201.961	3130.11
202.036	3114.38
202.111	3110.61
202.186	3082.88
202.26	3063.84
202.335	3040.09
202.41	3033.7
202.485	3012.88
202.559	2996.71
202.634	2970.39
202.709	2981.73
202.784	2967.71
202.858	2970.48
202.933	2954.17
203.008	2952.93
203.082	2937.3
203.157	2941.64
203.232	2901.9
203.306	2885.06
203.381	2860.13
203.456	2844.16
203.53	2826.79
203.605	2814.03
203.68	2798.96
203.754	2801.63
203.829	2796.86
203.904	2786.76
203.978	2787.42
204.053	2806.78
204.127	2803.92
204.202	2813.02
204.277	2809.4
204.351	2813.64
204.426	2827.37
204.5	2839.34
204.575	2823.42
204.65	2852.6
204.724	2865.96
204.799	2896.3
204.873	2915.62
204.948	2939.27
205.022	2953.42
205.097	2974.85
205.171	3019.61
205.246	3060.5
205.32	3093.54
205.395	3126.55
205.469	3154.91
205.544	3198.68
205.618	3221.34
205.693	3275.31
205.767	3309.24
205.842	3381.76
205.916	3422.65
205.991	3457.6
206.065	3510.64
206.14	3577.03
206.214	3626.38
206.289	3679.46
206.363	3752.45
206.438	3816.01
206.512	3884.96
206.586	3969.11
206.661	4038.83
206.735	4083.6
206.81	4148.94
206.884	4231.5
206.958	4292.37
207.033	4385.08
207.107	4464.62
207.181	4576.52
207.256	4650.66
207.33	4747.72
207.405	4835.78
207.479	4942.98
207.553	5036.01
207.628	5105.53
207.702	5204.49
207.776	5286.08
207.851	5374.07
207.925	5476.9
207.999	5564.15
208.073	5652.27
208.148	5747.56
208.222	5832.65
208.296	5963.71
208.371	6076.1
208.445	6184.45
208.519	6313.2
208.593	6426.53
208.668	6522.07
208.742	6618.96
208.816	6719.98
208.89	6834.01
208.965	6932.67
209.039	7044.78
209.113	7164.42
209.187	7287.67
209.261	7387.05
209.336	7511.25
209.41	7636.53
209.484	7744.06
209.558	7868.98
209.632	7990.02
209.707	8107.08
209.781	8232.19
209.855	8349.11
209.929	8472.56
210.003	8581.68
210.077	8682.84
210.151	8827.36
210.226	8966.18
210.3	9096.28
210.374	9219.79
210.448	9328.6
210.522	9441.27
210.596	9546.35
210.67	9662.55
210.744	9815.17
210.818	9944.57
210.892	10065.08
210.966	10155.78
211.041	10266.52
211.115	10364.41
211.189	10486.15
211.263	10598.45
211.337	10703.19
211.411	10813.44
211.485	10903.41
211.559	11013.75
211.633	11108.72
211.707	11165.68
211.781	11265.3
211.855	11332.58
211.929	11421.49
212.003	11486.5
212.077	11592.25
212.151	11704.64
212.225	11798.78
212.299	11868.09
212.373	11943.86
212.447	12026.43
212.52	12149.24
212.594	12245.41
212.668	12340.89
212.742	12414.84
212.816	12497.22
212.89	12576.61
212.964	12667.96
213.038	12754.39
213.112	12857.02
213.186	12959.36
213.26	13036.1
213.333	13068.78
213.407	13151.94
213.481	13229.4
213.555	13333.09
213.629	13399.76
213.703	13454.86
213.777	13534.45
213.85	13602.66
213.924	13716.52
213.998	13806.04
214.072	13866.39
214.146	13925.3
214.219	13996.84
214.293	14064.38
214.367	14136.93
214.441	14220.71
214.515	14278.02
214.588	14321.65
214.662	14356.45
214.736	14402.88
214.81	14468.92
214.883	14558.34
214.957	14611.32
215.031	14664.78
215.105	14701.75
215.178	14757.43
215.252	14815.9
215.326	14856.78
215.4	14903.29
215.473	14917.37
215.547	14956.17
215.621	15013.96
215.694	15077.21
215.768	15117.55
215.842	15157.08
215.915	15196.46
215.989	15219.21
216.063	15257.72
216.136	15318.02
216.21	15360.39
216.284	15427.49
216.357	15489.57
216.431	15541.05
216.504	15598.41
216.578	15678.95
216.652	15748.22
216.725	15797.87
216.799	15861.1
216.873	15911.9
216.946	15970.37
217.02	16021.9
217.093	16062.24
217.167	16092.07
217.24	16126.05
217.314	16172.85
217.387	16228.57
217.461	16274.65
217.535	16348.34
217.608	16389.21
217.682	16439.92
217.755	16506.57
217.829	16553.85
217.902	16603.4
217.976	16648.56
218.049	16683.36
218.123	16714.11
218.196	16769.15
218.27	16810.16
218.343	16840.81
218.417	16895.17
218.49	16936.96
218.563	17000.19
218.637	17053.78
218.71	17126.41
218.784	17181.59
218.857	17242.22
218.931	17289.64
219.004	17346.61
219.077	17399.86
219.151	17448.01
219.224	17492.63
219.298	17536.54
219.371	17588.39
219.444	17622.03
219.518	17666.9
219.591	17726.03
219.665	17806.17
219.738	17859.32
219.811	17901.64
219.885	17963.32
219.958	18016.14
220.031	18057.63
220.105	18111.22
220.178	18160.04
220.251	18189.67
220.325	18243.36
220.398	18283.21
220.471	18326.29
220.544	18378.87
220.618	18404.89
220.691	18458.14
220.764	18505.9
220.838	18553.13
220.911	18586.38
220.984	18648.93
221.057	18704.01
221.131	18752.68
221.204	18757.79
221.277	18814.94
221.35	18876.77
221.424	18906.12
221.497	18943.66
221.57	18987.32
221.643	19022.69
221.716	19068.81
221.79	19103.41
221.863	19142.3
221.936	19189.71
222.009	19238.96
222.082	19274.91
222.155	19311.44
222.229	19363.97
222.302	19401.56
222.375	19434.9
222.448	19482.61
222.521	19522.51
222.594	19547.62
222.667	19564.63
222.74	19610.85
222.814	19627.18
222.887	19659.33
222.96	19697.45
223.033	19737.68
223.106	19769.44
223.179	19802.65
223.252	19830.74
223.325	19861.87
223.398	19892.57
223.471	19912.38
223.544	19934.35
223.617	19957.77
223.69	19997
223.763	20012.42
223.837	20046.68
223.91	20081.62
223.983	20087.36
224.056	20083.21
224.129	20114.87
224.202	20150.34
224.275	20156.42
224.348	20175.35
224.42	20190.58
224.493	20190.58
224.566	20202.39
224.639	20235.11
224.712	20248.51
224.785	20254.05
224.858	20265.57
224.931	20275.16
225.004	20289.18
225.077	20303.55
225.15	20294.24
225.223	20303.64
225.296	20330.87
225.369	20326.58
225.442	20335.45
225.514	20352.17
225.587	20372.32
225.66	20377.28
225.733	20394.68
225.806	20422.58
225.879	20422.39
225.952	20423.45
226.025	20457.23
226.097	20479.88
226.17	20478.2
226.243	20472.94
226.316	20487.45
226.389	20502.1
226.461	20516.03
226.534	20533.23
226.607	20551.06
226.68	20592.8
226.753	20595.21
226.825	20588.22
226.898	20613.81
226.971	20617.57
227.044	20635.88
227.117	20644.99
227.189	20667.6
227.262	20691.45
227.335	20705.81
227.407	20718.01
227.48	20734.73
227.553	20743.79
227.626	20750.83
227.698	20763.5
227.771	20777.48
227.844	20770.3
227.916	20784.66
227.989	20777.67
228.062	20781.91
228.134	20804.23
228.207	20797.29
228.28	20799.84
228.352	20794.68
228.425	20796.9
228.498	20807.55
228.57	20784.76
228.643	20805.34
228.716	20797.38
228.788	20789.43
228.861	20777.29
228.934	20791.31
229.006	20779.21
229.079	20773.43
229.151	20759.84
229.224	20748.56
229.296	20745.96
229.369	20774.93
229.442	20782.06
229.514	20775.21
229.587	20782.68
229.659	20754.78
229.732	20766.2
229.804	20773.62
229.877	20806.73
229.949	20806.16
230.022	20822.45
230.094	20836.23
230.167	20839.56
230.239	20823.84
230.312	20820.47
230.384	20844.04
230.457	20842.4
230.529	20856.42
230.602	20857.92
230.674	20857.77
230.747	20872.23
230.819	20888.33
230.892	20860.66
230.964	20859.31
231.037	20862.88
231.109	20850.83
231.181	20853.72
231.254	20833.53
231.326	20830.21
231.399	20814.35
231.471	20806.16
231.544	20775.89
231.616	20776.27
231.688	20775.6
231.761	20772.85
231.833	20756.37
231.905	20729.86
231.978	20715.12
232.05	20697.38
232.122	20701.72
232.195	20690.01
232.267	20684.32
232.339	20665.86
232.412	20668.95
232.484	20653.72
232.556	20635.26
232.629	20642.25
232.701	20647.02
232.773	20630.87
232.846	20611.64
232.918	20604.13
232.99	20599.64
233.062	20600.51
233.135	20588.41
233.207	20552.37
233.279	20555.26
233.351	20548.94
233.424	20525.38
233.496	20506.49
233.568	20504.03
233.64	20469.18
233.713	20454.39
233.785	20437.67
233.857	20418.73
233.929	20388.32
234.001	20386.87
234.074	20388.99
234.146	20352.9
234.218	20332.8
234.29	20315.55
234.362	20292.66
234.434	20252.17
234.507	20208.37
234.579	20170.1
234.651	20150.92
234.723	20142.25
234.795	20121.77
234.867	20097.86
234.939	20096.18
235.012	20077.04
235.084	20064.71
235.156	20045.29
235.228	20008.71
235.3	19982.3
235.372	19970.54
235.444	19971.94
235.516	19927.22
235.588	19906.74
235.66	19894.59
235.732	19859.94
235.804	19907.99
235.876	19899.89
235.948	19898.02
236.02	19887.61
236.092	19864.48
236.164	19833.2
236.236	19793.39
236.308	19762.75
236.38	19735.61
236.452	19698.31
236.524	19681.21
236.596	19670.03
236.668	19650.75
236.74	19637.35
236.812	19622.56
236.884	19605.64
236.956	19575.96
237.028	19546.08
237.1	19507.72
237.172	19492.45
237.244	19481.51
237.316	19405.56
237.388	19371.73
237.46	19336.98
237.532	19318.48
237.604	19279.49
237.675	19276.17
237.747	19273.71
237.819	19231.98
237.891	19212.7
237.963	19181.96
238.035	19141.38
238.107	19074.3
238.178	19058.4
238.25	19028.42
238.322	19015.32
238.394	18960.09
238.466	18920.38
238.538	18900.82
238.609	18877.88
238.681	18827.33
238.753	18787.52
238.825	18756.3
238.897	18729.07
238.968	18719.67
239.04	18688.01
239.112	18690.95
239.184	18639.92
239.255	18605.32
239.327	18580.16
239.399	18550.52
239.471	18530
239.542	18502.86
239.614	18490.05
239.686	18441.76
239.758	18423.11
239.829	18379.5
239.901	18357.38
239.973	18332.13
240.044	18297.38
240.116	18262.11
240.188	18230.59
240.259	18195.31
240.331	18156.52
240.403	18127.22
240.474	18079.13
240.546	18035.32
240.618	17980.58
240.689	17949.4
240.761	17910.31
240.833	17898.65
240.904	17866.75
240.976	17833.79
241.048	17810.32
241.119	17793.02
241.191	17755.09
241.262	17733.11
241.334	17693.69
241.405	17671.09
241.477	17631.81
241.549	17605.5
241.62	17583.62
241.692	17559.81
241.763	17546.8
241.835	17522.85
241.906	17489.74
241.978	17436.2
242.049	17420.49
242.121	17399.48
242.192	17370.22
242.264	17326.9
242.335	17276.1
242.407	17246.85
242.478	17206.27
242.55	17167.14
242.621	17118.36
242.693	17086.22
242.764	17046.6
242.836	17007.66
242.907	16978.07
242.979	16954.79
243.05	16918.5
243.122	16885.92
243.193	16850.02
243.264	16793.73
243.336	16762.79
243.407	16738.45
243.479	16728.76
243.55	16695.12
243.622	16665.48
243.693	16636.61
243.764	16632.51
243.836	16595.11
243.907	16560.8
243.978	16524.17
244.05	16502.48
244.121	16448.11
244.192	16428.01
244.264	16378.66
244.335	16351.23
244.407	16295.37
244.478	16265.54
244.549	16228.48
244.62	16181.68
244.692	16143.12
244.763	16108.9
244.834	16062.82
244.906	16026.77
244.977	16003
245.048	15977.36
245.119	15940.88
245.191	15898.99
245.262	15837.68
245.333	15819.41
245.405	15781.14
245.476	15755.79
245.547	15722.68
245.618	15706.05
245.689	15671.92
245.761	15641.99
245.832	15606.51
245.903	15592.39
245.974	15557.21
246.045	15525.39
246.117	15511.85
246.188	15475.74
246.259	15448.08
246.33	15415.68
246.401	15378.67
246.473	15320.58
246.544	15284.29
246.615	15260.28
246.686	15227.8
246.757	15210.64
246.828	15172.46
246.899	15159.25
246.97	15113.84
247.042	15078.85
247.113	15060.58
247.184	15050.07
247.255	15012.33
247.326	14987.36
247.397	14952.6
247.468	14923.39
247.539	14899.87
247.61	14851.91
247.681	14828.91
247.752	14809.34
247.823	14770.92
247.894	14742.58
247.965	14704.69
248.037	14666.95
248.108	14616.86
248.179	14586.4
248.25	14549.09
248.321	14524.36
248.392	14479.33
248.463	14475.28
248.534	14441.97
248.605	14414.64
248.675	14385.43
248.746	14370.15
248.817	14349.81
248.888	14335.2
248.959	14294.03
249.03	14268.1
249.101	14247.52
249.172	14219.12
249.243	14164.6
249.314	14158.05
249.385	14130.18
249.456	14117.79
249.527	14088.48
249.598	14073.15
249.669	14047.17
249.739	14026.3
249.81	14007.4
249.881	13973.75
249.952	13943.72
250.023	13919.86
250.094	13877
250.165	13839.55
250.235	13812.7
250.306	13786.86
250.377	13735.52
250.448	13715.66
250.519	13667.5
250.59	13653.08
250.66	13618.91
250.731	13617.75
250.802	13591.72
250.873	13569.06
250.944	13549.1
251.014	13520.08
251.085	13520.37
251.156	13504.66
251.227	13492.51
251.297	13479.97
251.368	13470.43
251.439	13456.69
251.51	13441.51
251.58	13410.65
251.651	13375.37
251.722	13366.16
251.792	13316.51
251.863	13297.71
251.934	13289.51
252.005	13297.03
252.075	13274.47
252.146	13259.53
252.217	13248.34
252.287	13229.16
252.358	13207.22
252.429	13195.51
252.499	13175.6
252.57	13153.13
252.641	13138.19
252.711	13112.79
252.782	13057.4
252.852	13049.59
252.923	13023.51
252.994	13002.68
253.064	12996.71
253.135	12967.78
253.205	12931.29
253.276	12930.66
253.347	12924.69
253.417	12894.61
253.488	12864.86
253.558	12843.89
253.629	12826.3
253.699	12809.04
253.77	12798.68
253.841	12769.32
253.911	12751.92
253.982	12720.97
254.052	12702.8
254.123	12681.49
254.193	12660.23
254.264	12690.36
254.334	12650.54
254.405	12621.43
254.475	12586.14
254.546	12556.16
254.616	12550.32
254.687	12537.21
254.757	12524.63
254.827	12501.88
254.898	12479.03
254.968	12455.12
255.039	12415.45
255.109	12404.7
255.18	12371.54
255.25	12318.85
255.321	12312.29
255.391	12278.02
255.461	12292.05
255.532	12244.76
255.602	12222.54
255.673	12182.72
255.743	12144.06
255.813	12105.26
255.884	12098.99
255.954	12090.42
256.024	12089.07
256.095	12070.07
256.165	12035.32
256.235	12017.05
256.306	11979.31
256.376	11969.24
256.446	11966.01
256.517	11956.13
256.587	11945.81
256.657	11932.36
256.728	11916.99
256.798	11893.32
256.868	11869.22
256.938	11835.82
257.009	11828.88
257.079	11820.06
257.149	11823.33
257.219	11785.01
257.29	11774.36
257.36	11730.89
257.43	11728.04
257.5	11687.41
257.571	11664.37
257.641	11656.61
257.711	11624.18
257.781	11621.19
257.852	11604.46
257.922	11560.51
257.992	11543.73
258.062	11518.48
258.132	11498.72
258.202	11481.99
258.273	11463.2
258.343	11463.87
258.413	11434.14
258.483	11419.87
258.553	11386.85
258.623	11362.61
258.693	11353.5
258.764	11348.97
258.834	11354.08
258.904	11330.42
258.974	11303.96
259.044	11285.36
259.114	11275.04
259.184	11263.19
259.254	11242.8
259.324	11215.57
259.394	11204.05
259.464	11202.46
259.535	11179.96
259.605	11159.91
259.675	11139.48
259.745	11126.85
259.815	11094.8
259.885	11069.07
259.955	11073.31
260.025	11042.04
260.095	11020.11
260.165	11004.55
260.235	11005.61
260.305	10973.56
260.375	10944.16
260.445	10951.44
260.515	10948.98
260.585	10940.26
260.655	10916.6
260.725	10914.14
260.795	10897.76
260.865	10906.33
260.934	10881.85
261.004	10881.32
261.074	10863.06
261.144	10862.77
261.214	10861.57
261.284	10844.03
261.354	10847.26
261.424	10816.46
261.494	10817.33
261.564	10803.79
261.634	10794.87
261.703	10750.83
261.773	10743.94
261.843	10737.92
261.913	10724.23
