Data from 20250703_urea_0.1M_MAYP1162681_15-51-05-375.txt Node
Date: Thu Jul 03 15:51:05 BST 2025
User: adleo
Spectrometer: MAYP116268
Trigger mode: 0
Integration Time (sec): 1.000000E0
Scans to average: 1
Electric dark correction enabled: true
Nonlinearity correction enabled: true
Boxcar width: 10
XAxis mode: Wavelengths
Number of Pixels in Spectrum: 2068
>>>>>Begin Spectral Data<<<<<
179.565	1286.75
179.642	1341.39
179.718	1384.32
179.795	1427.68
179.871	1465.92
179.948	1487.47
180.024	1508.01
180.101	1534.19
180.177	1550.84
180.254	1574.57
180.33	1601.6
180.407	1661.71
180.483	1761.53
180.56	1860.65
180.636	1951.29
180.712	1939.25
180.789	1947.29
180.865	1958.79
180.942	1968.73
181.018	1978.38
181.095	1992.94
181.171	2000.5
181.248	2003.45
181.324	2022.33
181.4	2029.03
181.477	2037.31
181.553	2050.24
181.63	2072.41
181.706	2086.96
181.782	2094.76
181.859	2094.86
181.935	2097.47
182.011	2094.67
182.088	2111.88
182.164	2128.64
182.24	2145.43
182.317	2154.94
182.393	2156.13
182.469	2168.54
182.546	2180.91
182.622	2185.52
182.698	2181.43
182.775	2194.14
182.851	2210.46
182.927	2203.65
183.003	2198.85
183.08	2193.09
183.156	2201.85
183.232	2198.99
183.308	2187
183.385	2196.18
183.461	2214.45
183.537	2214.88
183.613	2227.4
183.69	2219.83
183.766	2208.88
183.842	2212.02
183.918	2220.64
183.995	2234.72
184.071	2241.34
184.147	2232.49
184.223	2224.02
184.299	2234.35
184.375	2218.89
184.452	2224.98
184.528	2273.76
184.604	2287.89
184.68	2300.59
184.756	2310.02
184.832	2315.2
184.908	2320.87
184.985	2318.11
185.061	2302.59
185.137	2313.35
185.213	2301.74
185.289	2305.26
185.365	2297.46
185.441	2297.22
185.517	2309.5
185.593	2301.08
185.669	2298.7
185.745	2314.5
185.822	2328.77
185.898	2322.25
185.974	2332.57
186.05	2324.53
186.126	2291.6
186.202	2283.89
186.278	2282.98
186.354	2270.32
186.43	2277.32
186.506	2275.56
186.582	2276.42
186.658	2283.89
186.734	2262
186.81	2266.42
186.886	2266.57
186.962	2283.32
187.038	2280.79
187.114	2271.7
187.19	2284.6
187.266	2273.27
187.341	2272.89
187.417	2268.04
187.493	2269.23
187.569	2275.46
187.645	2270.7
187.721	2258.28
187.797	2264.94
187.873	2265.85
187.949	2262.85
188.025	2254.95
188.101	2258.75
188.176	2265.75
188.252	2261.18
188.328	2268.55
188.404	2266.17
188.48	2260.75
188.556	2252.09
188.632	2251.23
188.707	2250.61
188.783	2244.33
188.859	2238.62
188.935	2228.58
189.011	2236.1
189.086	2228.06
189.162	2216.54
189.238	2212.69
189.314	2209.78
189.39	2202.36
189.465	2195.22
189.541	2212.79
189.617	2197.28
189.693	2191.66
189.768	2194.57
189.844	2221.89
189.92	2214.38
189.996	2223.56
190.071	2238.6
190.147	2236.46
190.223	2246.69
190.298	2240.22
190.374	2228.52
190.45	2239.46
190.526	2245.45
190.601	2239.5
190.677	2240.46
190.753	2270.88
190.828	2274.45
190.904	2292.34
190.98	2310.05
191.055	2323.52
191.131	2313.43
191.207	2335.36
191.282	2348.49
191.358	2335.41
191.433	2317.65
191.509	2333.2
191.585	2331.73
191.66	2331.73
191.736	2337.91
191.811	2328.25
191.887	2346.01
191.963	2369.95
192.038	2379.28
192.114	2379.85
192.189	2382.08
192.265	2381.13
192.34	2358.7
192.416	2358.66
192.491	2349.85
192.567	2350.99
192.642	2354.13
192.718	2354.75
192.793	2343.47
192.869	2336.76
192.944	2342.47
193.02	2347.56
193.095	2352.13
193.171	2357.66
193.246	2357.66
193.322	2354.04
193.397	2355.37
193.473	2341.56
193.548	2323.19
193.624	2326.76
193.699	2326.66
193.775	2342.33
193.85	2342.33
193.925	2348.56
194.001	2348.7
194.076	2341.47
194.152	2330.52
194.227	2322.9
194.302	2310.77
194.378	2313.53
194.453	2309.3
194.529	2322.2
194.604	2309.87
194.679	2304.16
194.755	2283.37
194.83	2293.89
194.905	2295.37
194.981	2303.31
195.056	2295.22
195.131	2302.13
195.207	2301.22
195.282	2289.71
195.357	2272.47
195.433	2290.51
195.508	2280.56
195.583	2286.27
195.659	2304.7
195.734	2314.6
195.809	2312.27
195.884	2323.26
195.96	2324.21
196.035	2343.06
196.11	2337.63
196.185	2350.86
196.261	2352.19
196.336	2385.84
196.411	2372.8
196.486	2378.46
196.561	2374.27
196.637	2383.46
196.712	2399.93
196.787	2401.55
196.862	2419.49
196.937	2430.58
197.013	2433.92
197.088	2445.2
197.163	2468.96
197.238	2485.12
197.313	2480.31
197.388	2492.83
197.464	2523.02
197.539	2531.74
197.614	2526.64
197.689	2539.93
197.764	2554.6
197.839	2577.65
197.914	2570.03
197.989	2591.32
198.065	2605.79
198.14	2657.85
198.215	2686.62
198.29	2697.86
198.365	2714.63
198.44	2725.21
198.515	2753.99
198.59	2770.57
198.665	2796.2
198.74	2803.5
198.815	2803.92
198.89	2831.27
198.965	2865.45
199.04	2865.45
199.115	2885.22
199.19	2927.5
199.265	2931.64
199.34	2942.61
199.415	2977.57
199.49	3001.78
199.565	3013.5
199.64	3037.87
199.715	3034.52
199.79	3042.49
199.865	3052.02
199.94	3049.5
200.015	3082.64
200.09	3089.08
200.165	3096.57
200.24	3108.01
200.315	3152.45
200.39	3169.19
200.464	3173.62
200.539	3174.48
200.614	3189.5
200.689	3215.36
200.764	3223.71
200.839	3241.4
200.914	3247.98
200.989	3235.28
201.063	3249.97
201.138	3231.62
201.213	3235.2
201.288	3212.83
201.363	3217.75
201.438	3214.55
201.512	3230.38
201.587	3216.45
201.662	3220.6
201.737	3234.77
201.812	3242.78
201.886	3206.55
201.961	3217.96
202.036	3208.85
202.111	3205.99
202.186	3178.53
202.26	3159.87
202.335	3135.73
202.41	3133.83
202.485	3118.71
202.559	3103.31
202.634	3076.7
202.709	3089.09
202.784	3070.68
202.858	3078.07
202.933	3064.62
203.008	3064.24
203.082	3050.08
203.157	3053.32
203.232	3015.53
203.306	3001.45
203.381	2977.51
203.456	2962.11
203.53	2947.93
203.605	2940.98
203.68	2930.29
203.754	2936.87
203.829	2942.59
203.904	2938.82
203.978	2943.74
204.053	2963.43
204.127	2970.82
204.202	2995.47
204.277	3004.34
204.351	3024.18
204.426	3043.55
204.5	3064.06
204.575	3063.3
204.65	3112.07
204.724	3142.24
204.799	3191.83
204.873	3232.31
204.948	3274.45
205.022	3308.65
205.097	3350.01
205.171	3412.1
205.246	3477.1
205.32	3534.7
205.395	3588.34
205.469	3643.71
205.544	3717.45
205.618	3773.58
205.693	3862.72
205.767	3926.8
205.842	4028.88
205.916	4105.12
205.991	4182.5
206.065	4278.78
206.14	4387.16
206.214	4473.37
206.289	4562.31
206.363	4675.31
206.438	4780.92
206.512	4894.6
206.586	5030.98
206.661	5155.82
206.735	5254.54
206.81	5376.8
206.884	5515.5
206.958	5625.98
207.033	5771.61
207.107	5909.9
207.181	6080.53
207.256	6208.44
207.33	6366.86
207.405	6520.51
207.479	6686.65
207.553	6839.88
207.628	6976.09
207.702	7137.84
207.776	7289.6
207.851	7454.31
207.925	7632.78
207.999	7782.12
208.073	7940.23
208.148	8104.77
208.222	8258.19
208.296	8458
208.371	8642.25
208.445	8823.97
208.519	9034.96
208.593	9223.75
208.668	9394.44
208.742	9569.02
208.816	9744.87
208.89	9941.47
208.965	10118.32
209.039	10299.73
209.113	10497.1
209.187	10691.9
209.261	10870.54
209.336	11072.29
209.41	11264.84
209.484	11441.04
209.558	11645.22
209.632	11838.76
209.707	12025.9
209.781	12227.22
209.855	12421.47
209.929	12611.91
210.003	12795.13
210.077	12960.85
210.151	13179.98
210.226	13386.68
210.3	13589.67
210.374	13790.19
210.448	13959.05
210.522	14137.41
210.596	14323
210.67	14502.07
210.744	14711.76
210.818	14908.52
210.892	15098.06
210.966	15262.23
211.041	15435.57
211.115	15595.55
211.189	15781.6
211.263	15961.73
211.337	16125.41
211.411	16297.33
211.485	16447.9
211.559	16613.22
211.633	16770.06
211.707	16897.1
211.781	17060.19
211.855	17180.29
211.929	17321.45
212.003	17447.77
212.077	17616.88
212.151	17774.85
212.225	17925.45
212.299	18063.95
212.373	18195.28
212.447	18319.27
212.52	18484.04
212.594	18629.09
212.668	18782.29
212.742	18906.62
212.816	19032.59
212.89	19151.77
212.964	19271.66
213.038	19404.53
213.112	19537.97
213.186	19685.87
213.26	19786.3
213.333	19856.7
213.407	19977.13
213.481	20084.79
213.555	20213.36
213.629	20300.83
213.703	20395.1
213.777	20514.86
213.85	20608.55
213.924	20757.24
213.998	20870.89
214.072	20976.3
214.146	21063.77
214.219	21161.42
214.293	21255.55
214.367	21354.16
214.441	21464.83
214.515	21560.89
214.588	21633.58
214.662	21701.88
214.736	21767
214.81	21857.71
214.883	21972.48
214.957	22043.24
215.031	22133.86
215.105	22191.17
215.178	22264.49
215.252	22331.64
215.326	22379.9
215.4	22427.77
215.473	22448.35
215.547	22504.33
215.621	22560.84
215.694	22641.59
215.768	22685.76
215.842	22735.7
215.915	22796.31
215.989	22828.23
216.063	22879.58
216.136	22946.07
216.21	22998.72
216.284	23076.3
216.357	23147.86
216.431	23187.93
216.504	23253.32
216.578	23319.81
216.652	23394.98
216.725	23444.65
216.799	23505.22
216.873	23562.66
216.946	23630.26
217.02	23686.64
217.093	23732.89
217.167	23754.78
217.24	23783.24
217.314	23826.35
217.387	23870.72
217.461	23907.28
217.535	23975.04
217.608	24014.25
217.682	24052.5
217.755	24107.1
217.829	24139.81
217.902	24174.68
217.976	24209.6
218.049	24245.54
218.123	24284.18
218.196	24329.76
218.27	24363.53
218.343	24401.69
218.417	24434.97
218.49	24471.35
218.563	24512.16
218.637	24542.94
218.71	24597.16
218.784	24637.64
218.857	24689.4
218.931	24732.39
219.004	24768.43
219.077	24811.27
219.151	24848.28
219.224	24879.16
219.298	24914.96
219.371	24959.35
219.444	24978.07
219.518	25019.71
219.591	25043.11
219.665	25098.27
219.738	25116.61
219.811	25142.52
219.885	25167.85
219.958	25204.57
220.031	25229.18
220.105	25255.96
220.178	25294.71
220.251	25324.78
220.325	25355.86
220.398	25378.54
220.471	25405.85
220.544	25434.71
220.618	25441.9
220.691	25456.14
220.764	25479.16
220.838	25495.33
220.911	25505.41
220.984	25559.13
221.057	25583.55
221.131	25606.72
221.204	25581.76
221.277	25622.74
221.35	25664.25
221.424	25678.87
221.497	25699.14
221.57	25706.53
221.643	25729.65
221.716	25748.76
221.79	25751.8
221.863	25763.14
221.936	25770.72
222.009	25776.76
222.082	25785.35
222.155	25787.18
222.229	25815.66
222.302	25830.33
222.375	25841.34
222.448	25857.22
222.521	25843.12
222.594	25829.32
222.667	25826.42
222.74	25839.94
222.814	25848.1
222.887	25850.85
222.96	25864.7
223.033	25869.63
223.106	25886.09
223.179	25883.58
223.252	25881.11
223.325	25889.71
223.398	25887.2
223.471	25882.75
223.544	25879.47
223.617	25877.73
223.69	25890.24
223.763	25864.8
223.837	25854.03
223.91	25848.87
223.983	25817.69
224.056	25796.64
224.129	25802.73
224.202	25805.43
224.275	25799.49
224.348	25769.85
224.42	25737.66
224.493	25701.85
224.566	25675.73
224.639	25656.33
224.712	25640.69
224.785	25619.31
224.858	25585.19
224.931	25558.25
225.004	25534.7
225.077	25522.98
225.15	25481.23
225.223	25453.09
225.296	25455.56
225.369	25415.36
225.442	25391.47
225.514	25377.76
225.587	25367.34
225.66	25346.92
225.733	25330.76
225.806	25312.71
225.879	25286.17
225.952	25264.5
226.025	25263.87
226.097	25268.99
226.17	25248.09
226.243	25211.13
226.316	25189.75
226.389	25178.31
226.461	25167.84
226.534	25159.06
226.607	25135.51
226.68	25145.98
226.753	25128.03
226.825	25086.68
226.898	25078.38
226.971	25051.55
227.044	25028.83
227.117	25009.24
227.189	24985.74
227.262	24968.61
227.335	24948.44
227.407	24924.56
227.48	24904.25
227.553	24879.88
227.626	24839.15
227.698	24812.67
227.771	24790.28
227.844	24754.39
227.916	24729.39
227.989	24691.38
228.062	24660.02
228.134	24644.19
228.207	24599.86
228.28	24569.22
228.352	24547.8
228.425	24533.67
228.498	24525.9
228.57	24501.59
228.643	24487.98
228.716	24461.16
228.788	24431.3
228.861	24399.8
228.934	24389.62
229.006	24366.03
229.079	24331.49
229.151	24299.17
229.224	24266.08
229.296	24247.32
229.369	24256.24
229.442	24236.9
229.514	24200.92
229.587	24191.37
229.659	24147.91
229.732	24133.92
229.804	24122.59
229.877	24116.41
229.949	24104.64
230.022	24099.43
230.094	24067.31
230.167	24046.52
230.239	24014.98
230.312	23979.58
230.384	23968.58
230.457	23951.17
230.529	23919.29
230.602	23898.7
230.674	23875.07
230.747	23860.16
230.819	23845.16
230.892	23782.71
230.964	23757.1
231.037	23748.32
231.109	23712.87
231.181	23709.5
231.254	23666.29
231.326	23629.78
231.399	23603.93
231.471	23564.43
231.544	23497.2
231.616	23474.68
231.688	23434.9
231.761	23407.7
231.833	23368.69
231.905	23314.68
231.978	23275.91
232.05	23258.7
232.122	23231.35
232.195	23192.49
232.267	23171.85
232.339	23136.36
232.412	23112.16
232.484	23072.38
232.556	23031.92
232.629	23029.03
232.701	22996.87
232.773	22971.07
232.846	22941.33
232.918	22902.46
232.99	22870.35
233.062	22852.27
233.135	22834.52
233.207	22791.57
233.279	22764.23
233.351	22749.24
233.424	22715.63
233.496	22666.17
233.568	22647.37
233.64	22597.57
233.713	22565.55
233.785	22531.66
233.857	22497.72
233.929	22454.96
234.001	22452.17
234.074	22423.39
234.146	22359.17
234.218	22324.02
234.29	22286.71
234.362	22236.14
234.434	22183.55
234.507	22138.19
234.579	22081.06
234.651	22027.85
234.723	22003.45
234.795	21973.9
234.867	21937.85
234.939	21920.21
235.012	21891.77
235.084	21851.85
235.156	21833.97
235.228	21796.27
235.3	21754.29
235.372	21723.73
235.444	21699.92
235.516	21627.13
235.588	21593.49
235.66	21558.59
235.732	21506.05
235.804	21526.25
235.876	21505.76
235.948	21481.66
236.02	21443.2
236.092	21409.85
236.164	21380.35
236.236	21332.06
236.308	21279.57
236.38	21248.1
236.452	21197.54
236.524	21168.72
236.596	21157
236.668	21114.59
236.74	21073.77
236.812	21041.24
236.884	21008.9
236.956	20964.56
237.028	20922.48
237.1	20875.88
237.172	20854.29
237.244	20833.85
237.316	20751.1
237.388	20696.35
237.46	20647.58
237.532	20619.33
237.604	20575.67
237.675	20552.15
237.747	20520.44
237.819	20478.08
237.891	20430.42
237.963	20385.07
238.035	20331.19
238.107	20232.39
238.178	20203.05
238.25	20155.62
238.322	20140.93
238.394	20073.31
238.466	20033.36
238.538	19994.57
238.609	19960.5
238.681	19895.68
238.753	19849.51
238.825	19817.85
238.897	19779.39
238.968	19767.93
239.04	19727.2
239.112	19724.65
239.184	19675.49
239.255	19636.12
239.327	19603.35
239.399	19563.5
239.471	19530.92
239.542	19500.18
239.614	19474.21
239.686	19413.68
239.758	19392.96
239.829	19334.45
239.901	19318.07
239.973	19275.08
240.044	19250.99
240.116	19215.14
240.188	19178.61
240.259	19135.72
240.331	19092.78
240.403	19065.55
240.474	18997.46
240.546	18949.99
240.618	18883.11
240.689	18841.28
240.761	18803.11
240.833	18779.84
240.904	18743.79
240.976	18700.32
241.048	18668.08
241.119	18649.58
241.191	18623.7
241.262	18600.76
241.334	18555.61
241.405	18510.89
241.477	18479.32
241.549	18438.8
241.62	18414.32
241.692	18376
241.763	18357.6
241.835	18318.22
241.906	18287.29
241.978	18239.72
242.049	18211.34
242.121	18186.71
242.192	18154.09
242.264	18107.63
242.335	18055.3
242.407	18022.28
242.478	17986.14
242.55	17942.29
242.621	17889.13
242.693	17843.98
242.764	17805.47
242.836	17768.75
242.907	17750.05
242.979	17717.96
243.05	17689.67
243.122	17646.39
243.193	17616.8
243.264	17550.34
243.336	17514.39
243.407	17482.25
243.479	17467.41
243.55	17436.22
243.622	17406.3
243.693	17375.12
243.764	17352.08
243.836	17304.03
243.907	17269.72
243.978	17237.86
244.05	17206.44
244.121	17160.65
244.192	17135.74
244.264	17081.04
244.335	17047.35
244.407	16975.11
244.478	16935.06
244.549	16894.43
244.62	16846.67
244.692	16804.88
244.763	16781.75
244.834	16740.44
244.906	16699.72
244.977	16671.96
245.048	16653.21
245.119	16605.88
245.191	16549.54
245.262	16495.32
245.333	16480.96
245.405	16437.39
245.476	16405.72
245.547	16374.64
245.618	16360.47
245.689	16330.73
245.761	16305.14
245.832	16261.32
245.903	16239.92
245.974	16212.69
246.045	16169.55
246.117	16153.36
246.188	16112.68
246.259	16068.96
246.33	16035.51
246.401	15997.15
246.473	15941.53
246.544	15897.33
246.615	15877.09
246.686	15847.97
246.757	15831.68
246.828	15785.22
246.899	15769.07
246.97	15717.49
247.042	15677.97
247.113	15643.7
247.184	15626.88
247.255	15581.47
247.326	15554.48
247.397	15525.03
247.468	15505.22
247.539	15481.07
247.61	15444.25
247.681	15420.48
247.752	15402.36
247.823	15362.69
247.894	15333.96
247.965	15296.31
248.037	15259.15
248.108	15207.24
248.179	15176.39
248.25	15140.52
248.321	15115.79
248.392	15075.55
248.463	15075.4
248.534	15043.83
248.605	15032.6
248.675	14990.37
248.746	14977.5
248.817	14957.69
248.888	14936.48
248.959	14875.7
249.03	14852.75
249.101	14816.84
249.172	14782.76
249.243	14735.47
249.314	14720.19
249.385	14689.58
249.456	14668.22
249.527	14637.61
249.598	14618.04
249.669	14586.23
249.739	14562.8
249.81	14543.81
249.881	14499.22
249.952	14473.04
250.023	14445.28
250.094	14385.98
250.165	14351.23
250.235	14317.97
250.306	14290.92
250.377	14241.85
250.448	14226.43
250.519	14170.27
250.59	14154.16
250.66	14122.4
250.731	14111.79
250.802	14086.92
250.873	14062.33
250.944	14045.41
251.014	14014.9
251.085	14014.42
251.156	13999.13
251.227	13989.88
251.297	13981.15
251.368	13974.93
251.439	13954.01
251.51	13944.52
251.58	13912.36
251.651	13886.57
251.722	13867.97
251.792	13821.59
251.863	13802.02
251.934	13799.27
252.005	13807.8
252.075	13785.63
252.146	13774.78
252.217	13759.21
252.287	13743.64
252.358	13720.98
252.429	13714.76
252.499	13684.39
252.57	13657.88
252.641	13646.31
252.711	13613.96
252.782	13563.54
252.852	13560.65
252.923	13538.18
252.994	13516.2
253.064	13500.73
253.135	13462.31
253.205	13433.05
253.276	13426.15
253.347	13419.98
253.417	13389.95
253.488	13366.67
253.558	13337.64
253.629	13320.29
253.699	13298.74
253.77	13280.33
253.841	13250.58
253.911	13221.76
253.982	13199.29
254.052	13182.66
254.123	13157.93
254.193	13139.95
254.264	13161.93
254.334	13127.9
254.405	13081.72
254.475	13042
254.546	13024.11
254.616	13025.03
254.687	13007.29
254.757	12992.2
254.827	12968
254.898	12944.19
254.968	12917.09
255.039	12890.34
255.109	12872.99
255.18	12844.25
255.25	12802.22
255.321	12789.93
255.391	12754.06
255.461	12763.41
255.532	12720.66
255.602	12689.76
255.673	12649.41
255.743	12616.05
255.813	12565.68
255.884	12564.38
255.954	12554.69
256.024	12556.71
256.095	12534.3
256.165	12497.08
256.235	12473.51
256.306	12439.96
256.376	12426.46
256.446	12416.92
256.517	12406.27
256.587	12396.53
256.657	12378.02
256.728	12355.84
256.798	12336.42
256.868	12314.68
256.938	12279.92
257.009	12271.68
257.079	12259.05
257.149	12263.78
257.219	12214.42
257.29	12211.33
257.36	12168.29
257.43	12161.78
257.5	12115.02
257.571	12090.25
257.641	12081.52
257.711	12056.89
257.781	12051.25
257.852	12038
257.922	11994.52
257.992	11968.15
258.062	11943.28
258.132	11929.16
258.202	11912.72
258.273	11899.61
258.343	11905.15
258.413	11881.63
258.483	11853.67
258.553	11829.38
258.623	11796.12
258.693	11794.58
258.764	11785.95
258.834	11784.99
258.904	11764.99
258.974	11737.76
259.044	11716.69
259.114	11707.53
259.184	11697.56
259.254	11673.75
259.324	11631.86
259.394	11622.03
259.464	11627
259.535	11607.09
259.605	11592.44
259.675	11564.48
259.745	11548.53
259.815	11510.12
259.885	11479.61
259.955	11498.12
260.025	11466.6
260.095	11453.97
260.165	11432.38
260.235	11433.87
260.305	11408.38
260.375	11371.51
260.445	11381.15
260.515	11376.04
260.585	11368.91
260.655	11350.59
260.725	11343.75
260.795	11338.3
260.865	11344.81
260.934	11311.31
261.004	11298.93
261.074	11273.43
261.144	11276.08
261.214	11268.76
261.284	11256.66
261.354	11255.31
261.424	11216.13
261.494	11221.33
261.564	11207.93
261.634	11205.43
261.703	11162.29
261.773	11151.64
261.843	11145.62
261.913	11132.94
