Data from 20250703_urea_0.1M_MAYP1162681_14-41-05-726.txt Node
Date: Thu Jul 03 14:41:05 BST 2025
User: adleo
Spectrometer: MAYP116268
Trigger mode: 0
Integration Time (sec): 1.000000E0
Scans to average: 1
Electric dark correction enabled: true
Nonlinearity correction enabled: true
Boxcar width: 10
XAxis mode: Wavelengths
Number of Pixels in Spectrum: 2068
>>>>>Begin Spectral Data<<<<<
179.565	1257.46
179.642	1316.26
179.718	1362.87
179.795	1405.67
179.871	1442.1
179.948	1462.55
180.024	1484.3
180.101	1505.91
180.177	1523.45
180.254	1548.93
180.33	1571.07
180.407	1629.91
180.483	1733.48
180.56	1829.36
180.636	1918.01
180.712	1904.93
180.789	1919.86
180.865	1934.26
180.942	1942.86
181.018	1953.18
181.095	1967.55
181.171	1976.29
181.248	1979.15
181.324	1993.61
181.4	1999.55
181.477	2010.73
181.553	2024.89
181.63	2045.73
181.706	2062.37
181.782	2069.12
181.859	2070.64
181.935	2077.21
182.011	2072.83
182.088	2085.77
182.164	2103.9
182.24	2116.5
182.317	2128.15
182.393	2124.06
182.469	2139.04
182.546	2155.51
182.622	2161.12
182.698	2154.41
182.775	2163.69
182.851	2174.87
182.927	2168.35
183.003	2163.4
183.08	2157.03
183.156	2167.54
183.232	2165.69
183.308	2157.84
183.385	2166.92
183.461	2182.2
183.537	2182.91
183.613	2196.56
183.69	2190.76
183.766	2182.81
183.842	2193.52
183.918	2199.37
183.995	2212.59
184.071	2212.17
184.147	2201.32
184.223	2188.71
184.299	2203.18
184.375	2194.05
184.452	2202.76
184.528	2255.92
184.604	2268.57
184.68	2279.94
184.756	2286.03
184.832	2288.94
184.908	2293.22
184.985	2292.22
185.061	2274.14
185.137	2286.66
185.213	2275
185.289	2274.9
185.365	2266.2
185.441	2261.96
185.517	2274.48
185.593	2270.06
185.669	2271.44
185.745	2285.14
185.822	2302.88
185.898	2294.89
185.974	2301.4
186.05	2293.64
186.126	2257.85
186.202	2252.43
186.278	2248.43
186.354	2238.1
186.43	2246.29
186.506	2243.1
186.582	2241.92
186.658	2249.05
186.734	2226.59
186.81	2229.16
186.886	2230.87
186.962	2242.48
187.038	2240.29
187.114	2232.77
187.19	2242.1
187.266	2233.11
187.341	2231.82
187.417	2226.4
187.493	2228.35
187.569	2234.11
187.645	2230.54
187.721	2218.88
187.797	2223.21
187.873	2227.87
187.949	2222.88
188.025	2215.4
188.101	2220.73
188.176	2226.82
188.252	2221.3
188.328	2229.77
188.404	2230.43
188.48	2223.73
188.556	2218.64
188.632	2219.11
188.707	2222.49
188.783	2218.16
188.859	2210.6
188.935	2201.75
189.011	2208.69
189.086	2200.46
189.162	2193.71
189.238	2187.43
189.314	2183.95
189.39	2179.1
189.465	2173.25
189.541	2190.28
189.617	2176.06
189.693	2170.97
189.768	2173.68
189.844	2201.95
189.92	2194.96
189.996	2202.86
190.071	2212.57
190.147	2211.76
190.223	2221.47
190.298	2212.09
190.374	2197.58
190.45	2209.33
190.526	2217.18
190.601	2211.09
190.677	2210.14
190.753	2235.56
190.828	2240.46
190.904	2258.12
190.98	2275.54
191.055	2286.96
191.131	2279.39
191.207	2299.71
191.282	2308.75
191.358	2300.94
191.433	2284.85
191.509	2299.07
191.585	2295.5
191.66	2299.6
191.736	2307.64
191.811	2295.69
191.887	2307.64
191.963	2333.53
192.038	2342.15
192.114	2340.67
192.189	2346.09
192.265	2345.14
192.34	2324.67
192.416	2324.76
192.491	2316.67
192.567	2315.1
192.642	2317.1
192.718	2317.96
192.793	2306.1
192.869	2301.92
192.944	2302.96
193.02	2311.44
193.095	2313.39
193.171	2319.1
193.246	2321.19
193.322	2317.48
193.397	2317.01
193.473	2307.68
193.548	2287.59
193.624	2291.06
193.699	2291.73
193.775	2305.87
193.85	2306.54
193.925	2317.34
194.001	2315.72
194.076	2312.82
194.152	2307.2
194.227	2299.73
194.302	2287.5
194.378	2290.6
194.453	2289.07
194.529	2302.45
194.604	2285.69
194.679	2277.51
194.755	2259.19
194.83	2270.91
194.905	2268.15
194.981	2280.28
195.056	2273.72
195.131	2283.43
195.207	2283.57
195.282	2273.58
195.357	2255.77
195.433	2272.81
195.508	2257.39
195.583	2266.33
195.659	2277.04
195.734	2281.38
195.809	2280.9
195.884	2290.75
195.96	2292.79
196.035	2310.02
196.11	2306.5
196.185	2321.25
196.261	2326.87
196.336	2362.09
196.411	2346.57
196.486	2353.47
196.561	2347.42
196.637	2355.84
196.712	2373.89
196.787	2377.23
196.862	2392.98
196.937	2404.78
197.013	2409.16
197.088	2420.2
197.163	2440.59
197.238	2459.17
197.313	2461.02
197.388	2472.83
197.464	2505.08
197.539	2514.02
197.614	2503.55
197.689	2517.6
197.764	2533.7
197.839	2554.89
197.914	2545.7
197.989	2568.7
198.065	2582.79
198.14	2633.83
198.215	2659.36
198.29	2665.99
198.365	2677.66
198.44	2688.95
198.515	2714.24
198.59	2731.11
198.665	2761.13
198.74	2770.23
198.815	2771.71
198.89	2794.39
198.965	2825.94
199.04	2822.94
199.115	2843.14
199.19	2889.93
199.265	2887.17
199.34	2898.61
199.415	2931.66
199.49	2955.62
199.565	2966.59
199.64	2990.85
199.715	2987.46
199.79	2994.85
199.865	3006.3
199.94	3009.06
200.015	3040.77
200.09	3048.4
200.165	3056.12
200.24	3063.23
200.315	3105.23
200.39	3120.96
200.464	3127.35
200.539	3128.74
200.614	3143.04
200.689	3164.84
200.764	3171.61
200.839	3196.83
200.914	3204.08
200.989	3194.44
201.063	3208.51
201.138	3189.49
201.213	3189.97
201.288	3172.28
201.363	3178.95
201.438	3176.38
201.512	3191.16
201.587	3175.46
201.662	3180.47
201.737	3192.68
201.812	3197.74
201.886	3166.33
201.961	3178.6
202.036	3167.53
202.111	3169.3
202.186	3139.65
202.26	3125.91
202.335	3100.4
202.41	3093.77
202.485	3076.99
202.559	3060.25
202.634	3030.73
202.709	3044.6
202.784	3027.87
202.858	3031.87
202.933	3016.23
203.008	3016.33
203.082	3000.88
203.157	3005.89
203.232	2968.19
203.306	2954.16
203.381	2932.13
203.456	2917.11
203.53	2904.32
203.605	2897.46
203.68	2884.68
203.754	2897.21
203.829	2896.4
203.904	2895.3
203.978	2901.93
204.053	2929.02
204.127	2938.93
204.202	2968.3
204.277	2977.08
204.351	2997.73
204.426	3019.43
204.5	3047.05
204.575	3044.52
204.65	3094.77
204.724	3130.81
204.799	3183.02
204.873	3221.54
204.948	3267.68
205.022	3307.18
205.097	3352.56
205.171	3421.67
205.246	3487.38
205.32	3546.09
205.395	3610.19
205.469	3671
205.544	3748.75
205.618	3803.57
205.693	3895.04
205.767	3958.51
205.842	4062.3
205.916	4143.95
205.991	4225.59
206.065	4319.39
206.14	4432.7
206.214	4525
206.289	4617.83
206.363	4734.1
206.438	4846.26
206.512	4965.85
206.586	5100.53
206.661	5230.39
206.735	5333.11
206.81	5464.16
206.884	5607.2
206.958	5725.58
207.033	5878.15
207.107	6025.83
207.181	6199.71
207.256	6336.04
207.33	6503.6
207.405	6668.18
207.479	6839.48
207.553	6996.72
207.628	7136.39
207.702	7308.46
207.776	7463.71
207.851	7629.21
207.925	7811.56
207.999	7981.95
208.073	8152.26
208.148	8322.12
208.222	8476.87
208.296	8681.25
208.371	8867.1
208.445	9056.18
208.519	9268.98
208.593	9462.43
208.668	9639.9
208.742	9820.71
208.816	9996.87
208.89	10198.61
208.965	10374.22
209.039	10569.58
209.113	10778.38
209.187	10990.06
209.261	11167.85
209.336	11373.33
209.41	11586.76
209.484	11771.45
209.558	11974.88
209.632	12171.96
209.707	12368.7
209.781	12574.8
209.855	12766.4
209.929	12964.18
210.003	13151.35
210.077	13324.6
210.151	13552.5
210.226	13760.79
210.3	13975.68
210.374	14182.38
210.448	14358.18
210.522	14549.69
210.596	14732.58
210.67	14905
210.744	15127.4
210.818	15330.1
210.892	15526.42
210.966	15683.17
211.041	15871.44
211.115	16027.61
211.189	16215.53
211.263	16398.69
211.337	16565.02
211.411	16757.32
211.485	16915.69
211.559	17090.74
211.633	17260.48
211.707	17381.01
211.781	17547.76
211.855	17658.31
211.929	17802.32
212.003	17939.71
212.077	18100.24
212.151	18260.09
212.225	18425.87
212.299	18561.53
212.373	18699.16
212.447	18826.43
212.52	18999.1
212.594	19142.42
212.668	19300.97
212.742	19424.24
212.816	19557.54
212.89	19687.7
212.964	19811.75
213.038	19945.62
213.112	20077.09
213.186	20216.85
213.26	20333.09
213.333	20408.8
213.407	20540.85
213.481	20668.61
213.555	20800.03
213.629	20909.24
213.703	21017.01
213.777	21130.95
213.85	21226.53
213.924	21375.28
213.998	21493.37
214.072	21594.45
214.146	21681.06
214.219	21780.94
214.293	21879.03
214.367	21980.02
214.441	22093.78
214.515	22187.2
214.588	22260.52
214.662	22317.94
214.736	22397.62
214.81	22488.3
214.883	22594.84
214.957	22676.02
215.031	22755.09
215.105	22811.78
215.178	22878.99
215.252	22950.59
215.326	22993.02
215.4	23044.27
215.473	23074.31
215.547	23134.68
215.621	23186.81
215.694	23271.3
215.768	23325.93
215.842	23384.28
215.915	23438.48
215.989	23479.38
216.063	23529.25
216.136	23603.32
216.21	23676.67
216.284	23745.35
216.357	23812.58
216.431	23868.82
216.504	23933.06
216.578	24012.84
216.652	24092.08
216.725	24144.65
216.799	24217.4
216.873	24285.41
216.946	24356.26
217.02	24402.86
217.093	24442.7
217.167	24479.36
217.24	24501.12
217.314	24541.4
217.387	24586.36
217.461	24621.19
217.535	24679.56
217.608	24703.87
217.682	24736.05
217.755	24785.5
217.829	24804.13
217.902	24844.37
217.976	24871.58
218.049	24899.47
218.123	24920.36
218.196	24960.84
218.27	24994.09
218.343	25009.44
218.417	25043.31
218.49	25067.34
218.563	25110.14
218.637	25154.87
218.71	25214.76
218.784	25267.75
218.857	25323.39
218.931	25365.9
219.004	25415.13
219.077	25449.63
219.151	25490.65
219.224	25529.07
219.298	25553.1
219.371	25602.28
219.444	25618.84
219.518	25650.2
219.591	25680.27
219.665	25728.3
219.738	25758.23
219.811	25778.74
219.885	25806.78
219.958	25845.93
220.031	25863.93
220.105	25893.47
220.178	25913.26
220.251	25917.9
220.325	25930.59
220.398	25938.41
220.471	25950.33
220.544	25968.58
220.618	25979.78
220.691	26009.81
220.764	26019.94
220.838	26052.29
220.911	26052.87
220.984	26085.26
221.057	26112.53
221.131	26119.63
221.204	26103.21
221.277	26124.31
221.35	26167.91
221.424	26171.92
221.497	26172.93
221.57	26185.58
221.643	26209.91
221.716	26222.13
221.79	26224.68
221.863	26244.04
221.936	26253.75
222.009	26255.44
222.082	26258.04
222.155	26252.88
222.229	26266.11
222.302	26280.21
222.375	26276.73
222.448	26293.68
222.521	26309.42
222.594	26314.97
222.667	26312.51
222.74	26321.39
222.814	26322.07
222.887	26314.68
222.96	26321.87
223.033	26327.47
223.106	26337.9
223.179	26337.71
223.252	26342.49
223.325	26345.67
223.398	26330.56
223.471	26322.31
223.544	26329.16
223.617	26326.5
223.69	26330.7
223.763	26310.43
223.837	26302.36
223.91	26308.69
223.983	26285.95
224.056	26245.44
224.129	26232.17
224.202	26230.04
224.275	26209.57
224.348	26173.08
224.42	26150.97
224.493	26123.06
224.566	26106.75
224.639	26094.05
224.712	26068.94
224.785	26040.41
224.858	26014.88
224.931	25996.43
225.004	25965.83
225.077	25941.84
225.15	25903.85
225.223	25883.24
225.296	25887.01
225.369	25850.66
225.442	25805.53
225.514	25784.68
225.587	25771.55
225.66	25747.99
225.733	25723.13
225.806	25713.43
225.879	25698.42
225.952	25657.2
226.025	25654.84
226.097	25646.73
226.17	25615.74
226.243	25563.86
226.316	25538.72
226.389	25518.4
226.461	25492.77
226.534	25473.95
226.607	25449.68
226.68	25441.28
226.753	25417.53
226.825	25366.08
226.898	25348.52
226.971	25321.78
227.044	25302.67
227.117	25284.82
227.189	25261.17
227.262	25258.76
227.335	25236.7
227.407	25196.85
227.48	25179.91
227.553	25143.24
227.626	25102.7
227.698	25079.68
227.771	25061.83
227.844	25027.91
227.916	25003.16
227.989	24966.54
228.062	24947
228.134	24941.88
228.207	24914.09
228.28	24872.6
228.352	24839.79
228.425	24811.56
228.498	24806.11
228.57	24759.36
228.643	24734.8
228.716	24698.14
228.788	24653.94
228.861	24616.65
228.934	24606.18
229.006	24579.84
229.079	24555.28
229.151	24519.34
229.224	24473.22
229.296	24443.7
229.369	24455.48
229.442	24446.36
229.514	24413.46
229.587	24400.39
229.659	24357.89
229.732	24335.02
229.804	24326.63
229.877	24331.21
229.949	24313.36
230.022	24292.57
230.094	24271.49
230.167	24242.16
230.239	24219.06
230.312	24187.95
230.384	24178.4
230.457	24153.94
230.529	24127.56
230.602	24097.32
230.674	24082.99
230.747	24075.42
230.819	24067.41
230.892	23991.93
230.964	23949.43
231.037	23927.83
231.109	23885.34
231.181	23864.65
231.254	23813.57
231.326	23769.83
231.399	23729.07
231.471	23691.07
231.544	23625.19
231.616	23609.67
231.688	23577.93
231.761	23533.08
231.833	23493.69
231.905	23445.61
231.978	23414.6
232.05	23370.81
232.122	23343.66
232.195	23302.09
232.267	23271.28
232.339	23223.98
232.412	23207.97
232.484	23172.19
232.556	23135.01
232.629	23124.74
232.701	23086.55
232.773	23062.49
232.846	23025.56
232.918	22986.36
232.99	22956.27
233.062	22939.59
233.135	22901.69
233.207	22860.71
233.279	22833.13
233.351	22811.29
233.424	22772.14
233.496	22722.24
233.568	22713.8
233.64	22649.68
233.713	22615.21
233.785	22579.2
233.857	22547.67
233.929	22502.88
234.001	22489.04
234.074	22471.88
234.146	22410.51
234.218	22376.33
234.29	22341.57
234.362	22303.44
234.434	22249.3
234.507	22202.49
234.579	22145.27
234.651	22105.84
234.723	22075.33
234.795	22040.67
234.867	21999.69
234.939	21974.53
235.012	21939.97
235.084	21899.52
235.156	21873.35
235.228	21821.97
235.3	21778.87
235.372	21739.97
235.444	21712.21
235.516	21647.04
235.588	21610.55
235.66	21572.91
235.732	21520.75
235.804	21534.06
235.876	21509.86
235.948	21493.14
236.02	21448.6
236.092	21416.6
236.164	21373.12
236.236	21327.53
236.308	21288.15
236.38	21255.62
236.452	21201.83
236.524	21165.97
236.596	21140.71
236.668	21121.24
236.74	21088.47
236.812	21063.89
236.884	21032.85
236.956	20993.43
237.028	20954.77
237.1	20898.87
237.172	20884.6
237.244	20859.11
237.316	20783.63
237.388	20729.07
237.46	20675
237.532	20654.03
237.604	20608.92
237.675	20596.06
237.747	20564.01
237.819	20526.71
237.891	20481.36
237.963	20433.7
238.035	20390.27
238.107	20317.41
238.178	20277.45
238.25	20230.08
238.322	20199.33
238.394	20148.83
238.466	20106.56
238.538	20076.25
238.609	20051.87
238.681	19981.12
238.753	19938.04
238.825	19894.71
238.897	19865.17
238.968	19848.5
239.04	19805.56
239.112	19798.09
239.184	19739.01
239.255	19695.88
239.327	19647.06
239.399	19616.8
239.471	19599.31
239.542	19572.32
239.614	19561.19
239.686	19509.91
239.758	19488.9
239.829	19437.29
239.901	19412.18
239.973	19378.64
240.044	19338.12
240.116	19291.32
240.188	19256.58
240.259	19219.13
240.331	19181.5
240.403	19154.56
240.474	19098.76
240.546	19048.11
240.618	18982.23
240.689	18940.65
240.761	18907.35
240.833	18895.73
240.904	18856.55
240.976	18804.32
241.048	18766.92
241.119	18724.32
241.191	18684.81
241.262	18666.3
241.334	18628.57
241.405	18587.37
241.477	18527.42
241.549	18485.4
241.62	18447.28
241.692	18413.98
241.763	18382.75
241.835	18336.68
241.906	18288.54
241.978	18234.47
242.049	18213.02
242.121	18194.04
242.192	18162.81
242.264	18105.27
242.335	18041.37
242.407	18004.69
242.478	17964.45
242.55	17922.72
242.621	17874.29
242.693	17840.6
242.764	17794.77
242.836	17755.31
242.907	17716.61
242.979	17695.16
243.05	17662.15
243.122	17629.96
243.193	17590.3
243.264	17532.51
243.336	17501.09
243.407	17476.47
243.479	17463.89
243.55	17423.16
243.622	17383.21
243.693	17351.98
243.764	17334.06
243.836	17291.11
243.907	17244.27
243.978	17213.28
244.05	17183.59
244.121	17134.2
244.192	17096.27
244.264	17036.7
244.335	16996.22
244.407	16945.42
244.478	16911.88
244.549	16872.79
244.62	16827.58
244.692	16795
244.763	16761.79
244.834	16713.26
244.906	16672.1
244.977	16636.54
245.048	16620.82
245.119	16580.58
245.191	16534.6
245.262	16465.92
245.333	16451.61
245.405	16423.8
245.476	16395.84
245.547	16365.38
245.618	16334.34
245.689	16297.42
245.761	16271.78
245.832	16239.63
245.903	16215.97
245.974	16182.71
246.045	16146.95
246.117	16126.85
246.188	16079.09
246.259	16043.8
246.33	16014.35
246.401	15977.39
246.473	15929.57
246.544	15885.33
246.615	15856.89
246.686	15814.81
246.757	15801.46
246.828	15750.03
246.899	15731.09
246.97	15685.2
247.042	15638.4
247.113	15616.18
247.184	15614.78
247.255	15578.44
247.326	15545.37
247.397	15513.37
247.468	15484.64
247.539	15452.63
247.61	15409.88
247.681	15392.57
247.752	15374.79
247.823	15325.33
247.894	15291.88
247.965	15248.74
248.037	15204.73
248.108	15163.61
248.179	15137.63
248.25	15112.85
248.321	15091.07
248.392	15040.69
248.463	15032.16
248.534	14995.67
248.605	14974.22
248.675	14934.75
248.746	14906.55
248.817	14883.31
248.888	14853.33
248.959	14806.86
249.03	14783.14
249.101	14750.85
249.172	14715.76
249.243	14663.16
249.314	14658.44
249.385	14635.16
249.456	14617.61
249.527	14591.68
249.598	14571.72
249.669	14543.28
249.739	14518.26
249.81	14499.32
249.881	14460.37
249.952	14429.13
250.023	14404.06
250.094	14358.94
250.165	14323.22
250.235	14296.76
250.306	14264.8
250.377	14238.04
250.448	14213.65
250.519	14172.44
250.59	14160.91
250.66	14125.14
250.731	14119.12
250.802	14092.7
250.873	14065.47
250.944	14041.17
251.014	14004.87
251.085	14005.45
251.156	13990.02
251.227	13978.21
251.297	13962.74
251.368	13950.83
251.439	13930.78
251.51	13922.44
251.58	13892.31
251.651	13864.06
251.722	13857.6
251.792	13820.48
251.863	13788.67
251.934	13781.15
252.005	13780.61
252.075	13757.67
252.146	13749.04
252.217	13733.52
252.287	13716.31
252.358	13691.53
252.429	13686.61
252.499	13659.91
252.57	13634.84
252.641	13615.65
252.711	13584.99
252.782	13546.67
252.852	13541.9
252.923	13512.15
252.994	13483.76
253.064	13473.3
253.135	13438.78
253.205	13398.58
253.276	13392.5
253.347	13382.14
253.417	13350.08
253.488	13322.27
253.558	13295.22
253.629	13268.61
253.699	13244.9
253.77	13228.55
253.841	13199.97
253.911	13180.3
253.982	13159.81
254.052	13138.02
254.123	13123.9
254.193	13113.29
254.264	13125.68
254.334	13092.76
254.405	13058.39
254.475	13026.23
254.546	13003.53
254.616	13004.35
254.687	12985.4
254.757	12969.16
254.827	12939.99
254.898	12919.21
254.968	12895.98
255.039	12859.87
255.109	12845.46
255.18	12814.08
255.25	12763.51
255.321	12751.07
255.391	12708.17
255.461	12715.64
255.532	12669.56
255.602	12640.01
255.673	12588.38
255.743	12561.24
255.813	12512.94
255.884	12511.54
255.954	12503.3
256.024	12498.05
256.095	12465.75
256.165	12437.65
256.235	12420.2
256.306	12398.21
256.376	12388.09
256.446	12377.2
256.517	12369.44
256.587	12358.16
256.657	12347.36
256.728	12340.37
256.798	12319.5
256.868	12302.24
256.938	12273.13
257.009	12264.64
257.079	12247.34
257.149	12254.91
257.219	12208.24
257.29	12197.79
257.36	12156.57
257.43	12141.82
257.5	12096.22
257.571	12072.41
257.641	12055.45
257.711	12021.8
257.781	12009.8
257.852	11998.52
257.922	11955.23
257.992	11934.8
258.062	11913.88
258.132	11895.9
258.202	11872.23
258.273	11857.58
258.343	11855.75
258.413	11827.89
258.483	11805.33
258.553	11773.76
258.623	11748.12
258.693	11734.52
258.764	11736.98
258.834	11730.62
258.904	11714.57
258.974	11693.84
259.044	11676.25
259.114	11665.79
259.184	11646.95
259.254	11620.78
259.324	11579.47
259.394	11571.81
259.464	11576.87
259.535	11557.54
259.605	11538.99
259.675	11512.77
259.745	11500.57
259.815	11469.39
259.885	11443.32
259.955	11455.66
260.025	11429.1
260.095	11402.59
260.165	11400.14
260.235	11394.45
260.305	11369.44
260.375	11337
260.445	11344.23
260.515	11346.93
260.585	11345.92
260.655	11332.52
260.725	11335.84
260.795	11333.05
260.865	11337.53
260.934	11307.12
261.004	11296.37
261.074	11272.23
261.144	11274.97
261.214	11263.45
261.284	11243.21
261.354	11243.17
261.424	11210.73
261.494	11218.68
261.564	11206.34
261.634	11189.96
261.703	11151.6
261.773	11150.92
261.843	11151.5
261.913	11136.51
