Data from 20250703_urea_0.1M_MAYP1162681_20-21-05-060.txt Node
Date: Thu Jul 03 20:21:05 BST 2025
User: adleo
Spectrometer: MAYP116268
Trigger mode: 0
Integration Time (sec): 1.000000E0
Scans to average: 1
Electric dark correction enabled: true
Nonlinearity correction enabled: true
Boxcar width: 10
XAxis mode: Wavelengths
Number of Pixels in Spectrum: 2068
>>>>>Begin Spectral Data<<<<<
179.565	1391.67
179.642	1457.64
179.718	1510.31
179.795	1556.67
179.871	1594.85
179.948	1612.4
180.024	1637.87
180.101	1664.12
180.177	1678.3
180.254	1704.75
180.33	1731.87
180.407	1797.8
180.483	1904.79
180.56	2012.62
180.636	2110.58
180.712	2092.74
180.789	2103.58
180.865	2114.43
180.942	2124.37
181.018	2136.78
181.095	2148.92
181.171	2159.1
181.248	2158.96
181.324	2174.09
181.4	2177.57
181.477	2189.7
181.553	2205.01
181.63	2227.24
181.706	2245.7
181.782	2256.74
181.859	2253.83
181.935	2257.93
182.011	2255.74
182.088	2274.58
182.164	2290.11
182.24	2305.57
182.317	2318.27
182.393	2317.08
182.469	2333.83
182.546	2347.59
182.622	2356.39
182.698	2348.83
182.775	2359.25
182.851	2375.53
182.927	2366.82
183.003	2366.01
183.08	2360.49
183.156	2375.29
183.232	2370.01
183.308	2355.54
183.385	2365.63
183.461	2387.48
183.537	2389.62
183.613	2401.56
183.69	2393.66
183.766	2385.23
183.842	2394.18
183.918	2401.71
183.995	2417.32
184.071	2422.75
184.147	2416.7
184.223	2401.28
184.299	2417.95
184.375	2406.33
184.452	2409.71
184.528	2464.05
184.604	2472.52
184.68	2484.37
184.756	2490.66
184.832	2496.51
184.908	2503.37
184.985	2504.22
185.061	2487.37
185.137	2498.94
185.213	2486.33
185.289	2485.47
185.365	2476.19
185.441	2473.71
185.517	2487.24
185.593	2480.58
185.669	2476.48
185.745	2488.34
185.822	2507.61
185.898	2496.8
185.974	2504.8
186.05	2499.65
186.126	2462.75
186.202	2459.37
186.278	2457.8
186.354	2444.27
186.43	2453.9
186.506	2451.18
186.582	2450.23
186.658	2457.04
186.734	2435.23
186.81	2443.04
186.886	2448.75
186.962	2463.84
187.038	2458.13
187.114	2452.17
187.19	2460.79
187.266	2447.89
187.341	2447.84
187.417	2440.56
187.493	2439.18
187.569	2442.61
187.645	2438.13
187.721	2427.27
187.797	2434.75
187.873	2436.27
187.949	2430.66
188.025	2418.8
188.101	2421.37
188.176	2425.41
188.252	2422.37
188.328	2431.31
188.404	2429.74
188.48	2422.89
188.556	2414.46
188.632	2414.32
188.707	2414.6
188.783	2412.46
188.859	2409.75
188.935	2400.32
189.011	2408.94
189.086	2404.75
189.162	2399.42
189.238	2395.13
189.314	2390.94
189.39	2383.95
189.465	2377.61
189.541	2397.85
189.617	2382.95
189.693	2378.67
189.768	2384.05
189.844	2410.58
189.92	2397.49
189.996	2407.87
190.071	2421.63
190.147	2420.35
190.223	2432.44
190.298	2423.3
190.374	2409.26
190.45	2422.44
190.526	2431.39
190.601	2422.35
190.677	2421.87
190.753	2451.36
190.828	2454.64
190.904	2470.93
190.98	2488.4
191.055	2499.69
191.131	2486.97
191.207	2508.54
191.282	2520.44
191.358	2506.58
191.433	2488.96
191.509	2506.52
191.585	2501.66
191.66	2502.18
191.736	2511.18
191.811	2501.71
191.887	2519.52
191.963	2543.61
192.038	2547.95
192.114	2545.33
192.189	2549.9
192.265	2549.42
192.34	2523.93
192.416	2523.12
192.491	2518.17
192.567	2521.41
192.642	2523.6
192.718	2523.98
192.793	2515.36
192.869	2507.22
192.944	2511.74
193.02	2521.56
193.095	2522.84
193.171	2525.6
193.246	2526.98
193.322	2524.13
193.397	2525.56
193.473	2509.03
193.548	2490.88
193.624	2497.69
193.699	2497.88
193.775	2516.46
193.85	2516.7
193.925	2527.56
194.001	2527.61
194.076	2522.37
194.152	2505.51
194.227	2498.84
194.302	2488.08
194.378	2488.04
194.453	2488.32
194.529	2501.85
194.604	2482.99
194.679	2473.99
194.755	2457.66
194.83	2470.43
194.905	2468.01
194.981	2475.82
195.056	2469.58
195.131	2475.91
195.207	2473.58
195.282	2462.72
195.357	2440.19
195.433	2457.67
195.508	2441.81
195.583	2453.14
195.659	2465.72
195.734	2478
195.809	2475.05
195.884	2487.38
195.96	2492.47
196.035	2507.38
196.11	2504.09
196.185	2518.71
196.261	2526.13
196.336	2559.42
196.411	2543.03
196.486	2548.98
196.561	2541.55
196.637	2549.46
196.712	2570.13
196.787	2573.75
196.862	2593.18
196.937	2605.23
197.013	2613.04
197.088	2626.33
197.163	2647.97
197.238	2665.79
197.313	2665.08
197.388	2681.61
197.464	2713.63
197.539	2722.68
197.614	2715.96
197.689	2727.3
197.764	2745.13
197.839	2768.81
197.914	2761.42
197.989	2786.92
198.065	2802.73
198.14	2858.96
198.215	2889.74
198.29	2899.14
198.365	2916.58
198.44	2927.83
198.515	2960.25
198.59	2975.84
198.665	3006.21
198.74	3016.61
198.815	3020.9
198.89	3050.36
198.965	3083.56
199.04	3079.6
199.115	3097.72
199.19	3145.92
199.265	3150.88
199.34	3160.51
199.415	3203.23
199.49	3227.4
199.565	3238.04
199.64	3265.89
199.715	3260.93
199.79	3272.57
199.865	3278.39
199.94	3274.62
200.015	3308.93
200.09	3313.56
200.165	3321.43
200.24	3328.01
200.315	3370.24
200.39	3389.28
200.464	3396.05
200.539	3397.06
200.614	3418.19
200.689	3444.82
200.764	3452.99
200.839	3473.4
200.914	3481.18
200.989	3465.99
201.063	3487.09
201.138	3466.58
201.213	3464.44
201.288	3446.06
201.363	3447.88
201.438	3452.5
201.512	3470.58
201.587	3454.16
201.662	3458.7
201.737	3469.05
201.812	3481.08
201.886	3445.97
201.961	3457.15
202.036	3438.35
202.111	3440.17
202.186	3409.21
202.26	3392.98
202.335	3372.6
202.41	3367.59
202.485	3352.18
202.559	3328.32
202.634	3299.5
202.709	3317.24
202.784	3300.2
202.858	3302.49
202.933	3286.37
203.008	3282.74
203.082	3267.95
203.157	3267.81
203.232	3227.28
203.306	3209.43
203.381	3179.7
203.456	3162.05
203.53	3139.61
203.605	3132.17
203.68	3113.41
203.754	3115.13
203.829	3109.02
203.904	3098.48
203.978	3100.01
204.053	3118.14
204.127	3124.43
204.202	3139.46
204.277	3137.84
204.351	3149.38
204.426	3162.7
204.5	3176.96
204.575	3165.56
204.65	3207.62
204.724	3231.78
204.799	3272.55
204.873	3306.83
204.948	3343.48
205.022	3367.82
205.097	3401.63
205.171	3459.92
205.246	3515.66
205.32	3562.66
205.395	3614.87
205.469	3653.53
205.544	3713.79
205.618	3752.34
205.693	3829.52
205.767	3879.7
205.842	3968.99
205.916	4032.03
205.991	4092.7
206.065	4175.32
206.14	4267.99
206.214	4338.78
206.289	4411.81
206.363	4511.52
206.438	4599.75
206.512	4695.15
206.586	4806.63
206.661	4911.87
206.735	4983.83
206.81	5083.22
206.884	5200.04
206.958	5286.95
207.033	5414.23
207.107	5537.53
207.181	5690.95
207.256	5792.58
207.33	5928.75
207.405	6061.29
207.479	6201.29
207.553	6335.84
207.628	6438.68
207.702	6576.26
207.776	6696.65
207.851	6827.71
207.925	6976.42
207.999	7110.04
208.073	7245.31
208.148	7387
208.222	7508.38
208.296	7679.67
208.371	7835.46
208.445	7995.66
208.519	8174.13
208.593	8335.8
208.668	8468.18
208.742	8608.49
208.816	8754.76
208.89	8914.66
208.965	9059.59
209.039	9222.95
209.113	9378.89
209.187	9552.52
209.261	9696.01
209.336	9864.47
209.41	10035.3
209.484	10179.96
209.558	10346.74
209.632	10513.08
209.707	10674.14
209.781	10849.42
209.855	11016.38
209.929	11183.56
210.003	11332.28
210.077	11476.57
210.151	11675.57
210.226	11863.63
210.3	12043.61
210.374	12214.76
210.448	12360.51
210.522	12511.87
210.596	12655.13
210.67	12809.03
210.744	13005.85
210.818	13181.45
210.892	13349.1
210.966	13493.24
211.041	13652.5
211.115	13786.95
211.189	13943.71
211.263	14100.28
211.337	14241.43
211.411	14396.45
211.485	14530.6
211.559	14677
211.633	14813.18
211.707	14906.36
211.781	15043.2
211.855	15131.6
211.929	15253.9
212.003	15371.37
212.077	15505.03
212.151	15643.99
212.225	15790.33
212.299	15895.74
212.373	16006.36
212.447	16123.19
212.52	16269.27
212.594	16394.11
212.668	16529.01
212.742	16635.77
212.816	16739
212.89	16844.79
212.964	16952.36
213.038	17065.71
213.112	17189.67
213.186	17317.82
213.26	17398.3
213.333	17455.22
213.407	17574.55
213.481	17683.08
213.555	17800.04
213.629	17894.89
213.703	17982.98
213.777	18087.41
213.85	18169.62
213.924	18318.53
213.998	18419.35
214.072	18511.82
214.146	18590.76
214.219	18683.96
214.293	18772.87
214.367	18881.49
214.441	18979.94
214.515	19058.01
214.588	19115.7
214.662	19178.63
214.736	19243.83
214.81	19346.43
214.883	19445.75
214.957	19514.28
215.031	19580.54
215.105	19627.67
215.178	19696.58
215.252	19770.12
215.326	19807.8
215.4	19862.16
215.473	19873.39
215.547	19922.3
215.621	19970.64
215.694	20046.74
215.768	20080.37
215.842	20126.44
215.915	20163.17
215.989	20212.32
216.063	20261.96
216.136	20325.05
216.21	20375.98
216.284	20443.65
216.357	20506.83
216.431	20559.07
216.504	20630.54
216.578	20711.27
216.652	20782.74
216.725	20829.73
216.799	20888.87
216.873	20951.91
216.946	21019.04
217.02	21073.65
217.093	21118.81
217.167	21156.3
217.24	21190.91
217.314	21241.61
217.387	21289.66
217.461	21328.27
217.535	21391.51
217.608	21433.92
217.682	21480.48
217.755	21541.36
217.829	21583.63
217.902	21616.84
217.976	21668.27
218.049	21693.24
218.123	21727.85
218.196	21774.9
218.27	21819.63
218.343	21845.99
218.417	21883.4
218.49	21915.6
218.563	21965.49
218.637	22015.62
218.71	22074.05
218.784	22126.84
218.857	22187.24
218.931	22243.45
219.004	22294.69
219.077	22339.72
219.151	22383.15
219.224	22428.37
219.298	22465.21
219.371	22518.43
219.444	22553.48
219.518	22591.85
219.591	22627.87
219.665	22694.26
219.738	22737.12
219.811	22767.64
219.885	22821.83
219.958	22867.1
220.031	22910.49
220.105	22956.01
220.178	22990.24
220.251	23019.27
220.325	23053.36
220.398	23090.44
220.471	23126.36
220.544	23164.84
220.618	23178.1
220.691	23213.78
220.764	23229.64
220.838	23261.37
220.911	23279.12
220.984	23327.19
221.057	23359.98
221.131	23402.32
221.204	23399.33
221.277	23447.17
221.35	23513.24
221.424	23534.98
221.497	23564.98
221.57	23584.56
221.643	23613.83
221.716	23646.48
221.79	23664.47
221.863	23677.39
221.936	23692.73
222.009	23706.04
222.082	23729.72
222.155	23752.1
222.229	23782.43
222.302	23825.11
222.375	23834.76
222.448	23862.2
222.521	23880.38
222.594	23893.69
222.667	23895.62
222.74	23911.15
222.814	23919.59
222.887	23920.37
222.96	23937.49
223.033	23964.16
223.106	23983.74
223.179	23990.45
223.252	24003.33
223.325	24018.71
223.398	24034.77
223.471	24042.44
223.544	24048.42
223.617	24058.6
223.69	24076.15
223.763	24080.16
223.837	24083.73
223.91	24108.37
223.983	24089.56
224.056	24083.53
224.129	24092.17
224.202	24113.97
224.275	24115.71
224.348	24106.93
224.42	24090.58
224.493	24079.68
224.566	24061.49
224.639	24067.86
224.712	24067.76
224.785	24067.81
224.858	24064.24
224.931	24062.7
225.004	24049.87
225.077	24055.32
225.15	24025.9
225.223	24020.3
225.296	24041.33
225.369	24011.43
225.442	23992.04
225.514	23993.68
225.587	23991.99
225.66	23982.15
225.733	23960.5
225.806	23962.38
225.879	23951.19
225.952	23936
226.025	23942.03
226.097	23956.83
226.17	23951.29
226.243	23922.4
226.316	23901.85
226.389	23892.93
226.461	23895.63
226.534	23908.99
226.607	23898.04
226.68	23916.75
226.753	23897.36
226.825	23856.17
226.898	23871.85
226.971	23870.01
227.044	23857.86
227.117	23854.44
227.189	23853.18
227.262	23862.63
227.335	23853.04
227.407	23843.54
227.48	23837.27
227.553	23833.41
227.626	23819.13
227.698	23803.89
227.771	23797.62
227.844	23774.91
227.916	23759.28
227.989	23715.59
228.062	23693.6
228.134	23700.93
228.207	23680.48
228.28	23666.59
228.352	23654.1
228.425	23638.86
228.498	23629.74
228.57	23606.69
228.643	23603.61
228.716	23574.72
228.788	23558.47
228.861	23542.31
228.934	23544
229.006	23526.78
229.079	23511.74
229.151	23480.87
229.224	23441.38
229.296	23428.55
229.369	23449.53
229.442	23454.26
229.514	23436.56
229.587	23423.54
229.659	23379.08
229.732	23371.41
229.804	23365.77
229.877	23370.11
229.949	23365.96
230.022	23377.59
230.094	23373.25
230.167	23352.75
230.239	23331.49
230.312	23319.29
230.384	23323
230.457	23309.21
230.529	23288.43
230.602	23257.08
230.674	23239.97
230.747	23249.03
230.819	23250.53
230.892	23189.14
230.964	23168.46
231.037	23168.74
231.109	23145.84
231.181	23138.85
231.254	23097.29
231.326	23068.31
231.399	23048.93
231.471	23023.23
231.544	22970.28
231.616	22958.32
231.688	22942.07
231.761	22916.09
231.833	22872.55
231.905	22828.04
231.978	22800.8
232.05	22782.43
232.122	22767.39
232.195	22734.94
232.267	22717.68
232.339	22689.52
232.412	22696.66
232.484	22666.48
232.556	22622.46
232.629	22632.97
232.701	22626.71
232.773	22609.93
232.846	22591.85
232.918	22562.54
232.99	22530.57
233.062	22510.37
233.135	22487.09
233.207	22437.33
233.279	22429.24
233.351	22418.53
233.424	22392.65
233.496	22349.55
233.568	22349.16
233.64	22309.78
233.713	22289.97
233.785	22255.21
233.857	22223.05
233.929	22163.28
234.001	22153.4
234.074	22149.06
234.146	22086.05
234.218	22047.2
234.29	22013.98
234.362	21974.75
234.434	21927.65
234.507	21887.26
234.579	21840.02
234.651	21804.11
234.723	21785.69
234.795	21753.25
234.867	21719.41
234.939	21703.51
235.012	21672.18
235.084	21654.15
235.156	21629.71
235.228	21588.4
235.3	21560.4
235.372	21525.84
235.444	21513.31
235.516	21452.38
235.588	21421.58
235.66	21390.93
235.732	21343.4
235.804	21382.26
235.876	21363.89
235.948	21347.26
236.02	21326.1
236.092	21292.42
236.164	21258.77
236.236	21226
236.308	21186.14
236.38	21159.25
236.452	21110.33
236.524	21087.29
236.596	21052.49
236.668	21028.05
236.74	21006.75
236.812	20971.13
236.884	20943.28
236.956	20909.01
237.028	20867.47
237.1	20820.48
237.172	20805.39
237.244	20796.33
237.316	20715.74
237.388	20669.77
237.46	20619.5
237.532	20593.19
237.604	20554.25
237.675	20537.96
237.747	20511.16
237.819	20470.34
237.891	20426.25
237.963	20386.83
238.035	20347.69
238.107	20265.38
238.178	20239.69
238.25	20197.14
238.322	20182.59
238.394	20130.88
238.466	20096.56
238.538	20073.19
238.609	20048.52
238.681	19994.98
238.753	19951.32
238.825	19917.15
238.897	19890.74
238.968	19883.46
239.04	19835.08
239.112	19838.64
239.184	19782.94
239.255	19737.2
239.327	19709.35
239.399	19680.87
239.471	19649.59
239.542	19622.27
239.614	19621.59
239.686	19562.13
239.758	19532.68
239.829	19485.55
239.901	19465.36
239.973	19430.13
240.044	19397.22
240.116	19361.46
240.188	19323.88
240.259	19283.83
240.331	19247.59
240.403	19210.39
240.474	19146.78
240.546	19109.48
240.618	19040.28
240.689	19000.76
240.761	18968.33
240.833	18948.28
240.904	18902.02
240.976	18869.35
241.048	18827.33
241.119	18789.93
241.191	18755.86
241.262	18739.48
241.334	18698.81
241.405	18661.12
241.477	18611.1
241.549	18570.33
241.62	18538.33
241.692	18508.07
241.763	18487.78
241.835	18449.57
241.906	18407.98
241.978	18366.15
242.049	18341.91
242.121	18321.57
242.192	18301.33
242.264	18250.93
242.335	18196.81
242.407	18175.03
242.478	18130.69
242.55	18098.35
242.621	18052.09
242.693	18012.72
242.764	17962.31
242.836	17921.2
242.907	17894.12
242.979	17865.74
243.05	17837.3
243.122	17804.15
243.193	17766.7
243.264	17692
243.336	17644.58
243.407	17624.58
243.479	17606.56
243.55	17570.18
243.622	17533.6
243.693	17488.83
243.764	17473.5
243.836	17422.13
243.907	17373.89
243.978	17342.61
244.05	17319.57
244.121	17273.21
244.192	17252.58
244.264	17211.14
244.335	17179.38
244.407	17115.09
244.478	17089.3
244.549	17044.39
244.62	16991.13
244.692	16950.55
244.763	16934.98
244.834	16895.08
244.906	16855.13
244.977	16816.43
245.048	16802.26
245.119	16757.96
245.191	16718.73
245.262	16662.68
245.333	16653.04
245.405	16626.39
245.476	16588.7
245.547	16546.92
245.618	16524.74
245.689	16497.71
245.761	16467.97
245.832	16425.85
245.903	16414.42
245.974	16383.1
246.045	16348.83
246.117	16342.46
246.188	16303.09
246.259	16257.92
246.33	16221.63
246.401	16178.73
246.473	16137.43
246.544	16082.58
246.615	16066.58
246.686	16025.03
246.757	16008.5
246.828	15962.85
246.899	15940.68
246.97	15894.55
247.042	15852.72
247.113	15826.06
247.184	15814.26
247.255	15770.3
247.326	15744.46
247.397	15709.81
247.468	15685.03
247.539	15657.27
247.61	15601.79
247.681	15581.3
247.752	15564.96
247.823	15530.74
247.894	15507.36
247.965	15466.44
248.037	15443.5
248.108	15388.45
248.179	15365.17
248.25	15329.07
248.321	15301.78
248.392	15265.2
248.463	15264.47
248.534	15234.83
248.605	15207.36
248.675	15159.97
248.746	15139.1
248.817	15113.22
248.888	15085.16
248.959	15033.1
249.03	15009.63
249.101	14977.67
249.172	14940.75
249.243	14890.81
249.314	14879.05
249.385	14849.59
249.456	14825.35
249.527	14791.94
249.598	14776.61
249.669	14746.44
249.739	14727.64
249.81	14708.31
249.881	14662.99
249.952	14632.91
250.023	14600.52
250.094	14561.33
250.165	14526.38
250.235	14497.65
250.306	14466.13
250.377	14428.19
250.448	14402.79
250.519	14358.48
250.59	14349.71
250.66	14322.23
250.731	14313.85
250.802	14285.94
250.873	14259.66
250.944	14236.81
251.014	14200.32
251.085	14197.72
251.156	14179.98
251.227	14162.48
251.297	14152.07
251.368	14141.61
251.439	14126.04
251.51	14115.87
251.58	14076.19
251.651	14043.36
251.722	14027.17
251.792	13988.79
251.863	13963.63
251.934	13959.63
252.005	13967.68
252.075	13943.67
252.146	13934.95
252.217	13931.67
252.287	13909.3
252.358	13883.8
252.429	13889.34
252.499	13859.31
252.57	13832.61
252.641	13815.83
252.711	13790.33
252.782	13745.79
252.852	13741.06
252.923	13714.79
252.994	13697.39
253.064	13689.05
253.135	13655.45
253.205	13627.68
253.276	13628.35
253.347	13621.36
253.417	13586.9
253.488	13553.06
253.558	13525.72
253.629	13495.06
253.699	13466.33
253.77	13463.68
253.841	13440.2
253.911	13411.47
253.982	13397.64
254.052	13380.96
254.123	13359.8
254.193	13333.62
254.264	13353.63
254.334	13313.04
254.405	13274.95
254.475	13238.32
254.546	13219.08
254.616	13221.25
254.687	13204.09
254.757	13185.29
254.827	13159.45
254.898	13143.25
254.968	13120.74
255.039	13084.49
255.109	13073.93
255.18	13036.57
255.25	12980.7
255.321	12972.27
255.391	12934.47
255.461	12930.09
255.532	12887.71
255.602	12860.91
255.673	12819.21
255.743	12780.74
255.813	12736.3
255.884	12723.81
255.954	12709.64
256.024	12705.35
256.095	12679.03
256.165	12648.42
256.235	12630.97
256.306	12608.89
256.376	12598.72
256.446	12591.15
256.517	12588.93
256.587	12576.11
256.657	12559.72
256.728	12551.24
256.798	12524.82
256.868	12506.6
256.938	12472.76
257.009	12461.48
257.079	12454.4
257.149	12463.94
257.219	12421.47
257.29	12412.89
257.36	12381.95
257.43	12375.58
257.5	12332.2
257.571	12306.32
257.641	12293.11
257.711	12260.76
257.781	12242.69
257.852	12232.52
257.922	12193.71
257.992	12169.37
258.062	12154.67
258.132	12153.61
258.202	12127.96
258.273	12105.65
258.343	12107.62
258.413	12087.76
258.483	12063.42
258.553	12031.56
258.623	11999.26
258.693	11988.37
258.764	11986.35
258.834	11980.9
258.904	11956.27
258.974	11925.33
259.044	11907.06
259.114	11900.31
259.184	11889.18
259.254	11874.86
259.324	11832.25
259.394	11814.37
259.464	11817.79
259.535	11786.7
259.605	11758.79
259.675	11732.04
259.745	11726.5
259.815	11688.71
259.885	11658.69
259.955	11673.73
260.025	11642.64
260.095	11630.16
260.165	11619.6
260.235	11625.34
260.305	11600.03
260.375	11572.08
260.445	11590.39
260.515	11592.9
260.585	11586.25
260.655	11566.78
260.725	11558.34
260.795	11548.51
260.865	11551.98
260.934	11518.82
261.004	11515.83
261.074	11491.11
261.144	11496.31
261.214	11488.17
261.284	11483.83
261.354	11482.62
261.424	11455.53
261.494	11460.35
261.564	11446.18
261.634	11441.75
261.703	11395.34
261.773	11383.1
261.843	11380.49
