Data from 20250703_urea_0.1M_MAYP1162681_08-31-05-578.txt Node
Date: Fri Jul 04 08:31:05 BST 2025
User: adleo
Spectrometer: MAYP116268
Trigger mode: 0
Integration Time (sec): 1.000000E0
Scans to average: 1
Electric dark correction enabled: true
Nonlinearity correction enabled: true
Boxcar width: 10
XAxis mode: Wavelengths
Number of Pixels in Spectrum: 2068
>>>>>Begin Spectral Data<<<<<
179.565	1226.71
179.642	1283.66
179.718	1327.86
179.795	1367.6
179.871	1399.71
179.948	1419.07
180.024	1440.62
180.101	1466.81
180.177	1480.9
180.254	1504.31
180.33	1526.77
180.407	1583.99
180.483	1681.57
180.56	1774.17
180.636	1860.44
180.712	1847.46
180.789	1857.25
180.865	1869.37
180.942	1878.78
181.018	1889.66
181.095	1903.31
181.171	1905.59
181.248	1907.4
181.324	1923.95
181.4	1931.65
181.477	1941.92
181.553	1955.04
181.63	1976.01
181.706	1989.95
181.782	1997.93
181.859	1996.36
181.935	2002.07
182.011	1998.12
182.088	2013.44
182.164	2032.42
182.24	2044.97
182.317	2054.05
182.393	2050.06
182.469	2065.61
182.546	2081.83
182.622	2084.97
182.698	2079.16
182.775	2092.72
182.851	2106.46
182.927	2098.43
183.003	2094.15
183.08	2092.2
183.156	2097.57
183.232	2094.91
183.308	2082.87
183.385	2092.1
183.461	2111.55
183.537	2110.93
183.613	2123.11
183.69	2114.5
183.766	2104.13
183.842	2111.64
183.918	2116.5
183.995	2132.1
184.071	2132.71
184.147	2122.68
184.223	2112.79
184.299	2128.39
184.375	2115.55
184.452	2121.21
184.528	2174.22
184.604	2181.83
184.68	2190.02
184.756	2202.2
184.832	2208.33
184.908	2213.66
184.985	2212.57
185.061	2194.11
185.137	2205.53
185.213	2195.82
185.289	2197.01
185.365	2188.4
185.441	2187.79
185.517	2200.78
185.593	2198.45
185.669	2197.92
185.745	2213.24
185.822	2228.51
185.898	2219.61
185.974	2229.17
186.05	2220.79
186.126	2181.2
186.202	2177.39
186.278	2174.06
186.354	2163.21
186.43	2167.64
186.506	2166.78
186.582	2167.4
186.658	2175.01
186.734	2156.36
186.81	2154.99
186.886	2159.88
186.962	2174.49
187.038	2170.11
187.114	2163.45
187.19	2168.97
187.266	2157.22
187.341	2155.32
187.417	2150.7
187.493	2149.13
187.569	2151.84
187.645	2147.66
187.721	2136.48
187.797	2147.04
187.873	2154.32
187.949	2148.04
188.025	2140.57
188.101	2141.52
188.176	2148.08
188.252	2142.19
188.328	2146.47
188.404	2149.75
188.48	2143.94
188.556	2137.09
188.632	2134.81
188.707	2135.71
188.783	2132.34
188.859	2128.25
188.935	2116.21
189.011	2121.35
189.086	2115.64
189.162	2109.31
189.238	2106.65
189.314	2103.75
189.39	2094.71
189.465	2085.15
189.541	2103.42
189.617	2089.1
189.693	2085.2
189.768	2084.49
189.844	2109.85
189.92	2104.24
189.996	2111.14
190.071	2122.31
190.147	2121.03
190.223	2131.88
190.298	2124.07
190.374	2114.32
190.45	2128.64
190.526	2138.53
190.601	2133.92
190.677	2136.06
190.753	2163.71
190.828	2166.14
190.904	2183.32
190.98	2196.73
191.055	2208.25
191.131	2197.11
191.207	2216.76
191.282	2224.51
191.358	2216.43
191.433	2203.29
191.509	2216.03
191.585	2214.99
191.66	2216.56
191.736	2225.83
191.811	2218.22
191.887	2236.78
191.963	2258.39
192.038	2264.1
192.114	2264.67
192.189	2269.61
192.265	2266.33
192.34	2243.96
192.416	2242.25
192.491	2238.39
192.567	2242.39
192.642	2242.67
192.718	2243.91
192.793	2233.21
192.869	2229.21
192.944	2231.49
193.02	2237.63
193.095	2242.01
193.171	2244.39
193.246	2240.68
193.322	2237.44
193.397	2237.96
193.473	2222.4
193.548	2203.22
193.624	2207.84
193.699	2206.46
193.775	2222.26
193.85	2224.02
193.925	2232.73
194.001	2231.87
194.076	2226.5
194.152	2216.26
194.227	2210.27
194.302	2202.04
194.378	2206.84
194.453	2207.56
194.529	2220.64
194.604	2206.42
194.679	2199.37
194.755	2180.97
194.83	2195.3
194.905	2191.82
194.981	2202.2
195.056	2195.97
195.131	2202.67
195.207	2199.86
195.282	2191.06
195.357	2172.79
195.433	2189.01
195.508	2175.45
195.583	2183.01
195.659	2194.25
195.734	2203.05
195.809	2206.05
195.884	2217.04
195.96	2217.8
196.035	2230.64
196.11	2227.03
196.185	2242.3
196.261	2246.53
196.336	2280.89
196.411	2267.75
196.486	2272.6
196.561	2265.47
196.637	2272.74
196.712	2290.21
196.787	2295.07
196.862	2310.01
196.937	2321
197.013	2327.29
197.088	2340.18
197.163	2366.89
197.238	2384.04
197.313	2381.23
197.388	2392.23
197.464	2418.18
197.539	2427.7
197.614	2420.47
197.689	2432.46
197.764	2445.94
197.839	2465.79
197.914	2456.55
197.989	2476.5
198.065	2490.83
198.14	2541.58
198.215	2569.53
198.29	2580.82
198.365	2593.73
198.44	2603.25
198.515	2632.36
198.59	2646.27
198.665	2673.85
198.74	2679.42
198.815	2679.09
198.89	2706.81
198.965	2735.07
199.04	2732.97
199.115	2749.69
199.19	2793.47
199.265	2796.71
199.34	2805.76
199.415	2839.47
199.49	2864.05
199.565	2875.73
199.64	2899.41
199.715	2895.69
199.79	2905.56
199.865	2913.37
199.94	2911.28
200.015	2943.69
200.09	2945.27
200.165	2951.89
200.24	2960.14
200.315	3002.47
200.39	3020.77
200.464	3023.78
200.539	3027.4
200.614	3045.28
200.689	3071.93
200.764	3080.76
200.839	3099.3
200.914	3105.54
200.989	3094.33
201.063	3104.82
201.138	3088.15
201.213	3089.48
201.288	3069.79
201.363	3072.32
201.438	3071.41
201.512	3089.14
201.587	3071.88
201.662	3077.79
201.737	3089.33
201.812	3096.29
201.886	3061.12
201.961	3072.48
202.036	3059.99
202.111	3057.8
202.186	3025.3
202.26	3005.89
202.335	2984.43
202.41	2977.7
202.485	2963.26
202.559	2943.1
202.634	2919.7
202.709	2928.99
202.784	2913.11
202.858	2915.69
202.933	2900.53
203.008	2895.05
203.082	2876.94
203.157	2878.51
203.232	2840.58
203.306	2824.85
203.381	2794.62
203.456	2775.8
203.53	2757.15
203.605	2745.91
203.68	2729.98
203.754	2734.17
203.829	2727.5
203.904	2716.54
203.978	2714.44
204.053	2728.26
204.127	2730.65
204.202	2742.04
204.277	2739.37
204.351	2747.18
204.426	2753.38
204.5	2761.39
204.575	2746.33
204.65	2771.69
204.724	2781.8
204.799	2810.19
204.873	2828.26
204.948	2850.28
205.022	2865.2
205.097	2881.7
205.171	2921.46
205.246	2956.56
205.32	2985.73
205.395	3015.92
205.469	3037.17
205.544	3078.35
205.618	3098.62
205.693	3149.72
205.767	3178.43
205.842	3240.9
205.916	3271.29
205.991	3307.17
206.065	3360.59
206.14	3424.46
206.214	3473.89
206.289	3520.31
206.363	3582.43
206.438	3638.99
206.512	3700.7
206.586	3774.3
206.661	3840.07
206.735	3880.43
206.81	3943.92
206.884	4022.87
206.958	4075
207.033	4165.05
207.107	4246.57
207.181	4350.63
207.256	4410.23
207.33	4498.48
207.405	4585.44
207.479	4683.77
207.553	4765.98
207.628	4823.55
207.702	4911.25
207.776	4987.74
207.851	5070.64
207.925	5169.68
207.999	5247.34
208.073	5333.01
208.148	5421.63
208.222	5493.2
208.296	5611.09
208.371	5713.98
208.445	5813.88
208.519	5928.44
208.593	6026.16
208.668	6106.45
208.742	6195.17
208.816	6289.98
208.89	6397.08
208.965	6483.34
209.039	6582.84
209.113	6696.31
209.187	6811.23
209.261	6901.51
209.336	7011.67
209.41	7128.86
209.484	7220.6
209.558	7344.7
209.632	7448.36
209.707	7556.28
209.781	7677.46
209.855	7789.22
209.929	7901.36
210.003	7998.12
210.077	8093.06
210.151	8230.91
210.226	8356.34
210.3	8480.32
210.374	8598.96
210.448	8700.16
210.522	8801.47
210.596	8906.69
210.67	9008.21
210.744	9150.47
210.818	9274.17
210.892	9392.38
210.966	9478.47
211.041	9587.44
211.115	9667.42
211.189	9784.16
211.263	9892.14
211.337	9985.96
211.411	10081.09
211.485	10166.22
211.559	10269.78
211.633	10364.04
211.707	10422.15
211.781	10524.01
211.855	10572.19
211.929	10654.29
212.003	10714.51
212.077	10815.08
212.151	10907.31
212.225	10990.57
212.299	11060.12
212.373	11129.12
212.447	11196.89
212.52	11308.16
212.594	11394.87
212.668	11491.06
212.742	11562.25
212.816	11631.99
212.89	11707.95
212.964	11789.02
213.038	11868.64
213.112	11957.67
213.186	12044.91
213.26	12100.24
213.333	12127.96
213.407	12211.15
213.481	12288.03
213.555	12388.19
213.629	12452.55
213.703	12509.33
213.777	12594.89
213.85	12646.81
213.924	12759.56
213.998	12838.96
214.072	12901.82
214.146	12953.59
214.219	13021.32
214.293	13075.36
214.367	13149.55
214.441	13225.47
214.515	13285.29
214.588	13329.31
214.662	13360.79
214.736	13414.34
214.81	13492.24
214.883	13567.25
214.957	13614.5
215.031	13669.84
215.105	13699.82
215.178	13753.67
215.252	13816.09
215.326	13847.86
215.4	13896.26
215.473	13903.69
215.547	13944.52
215.621	13985.68
215.694	14054.57
215.768	14088.99
215.842	14140.23
215.915	14177.35
215.989	14204.06
216.063	14247.92
216.136	14300.61
216.21	14356.34
216.284	14416.3
216.357	14468.56
216.431	14509.34
216.504	14572.05
216.578	14638.19
216.652	14703.89
216.725	14755.71
216.799	14812.55
216.873	14865.04
216.946	14921.78
217.02	14967.14
217.093	15013.65
217.167	15044.26
217.24	15084.08
217.314	15132.71
217.387	15181.25
217.461	15232.83
217.535	15304.46
217.608	15347.31
217.682	15400.72
217.755	15466.27
217.829	15510.42
217.902	15563.49
217.976	15615.55
218.049	15657.34
218.123	15698.31
218.196	15749.5
218.27	15785.07
218.343	15815.48
218.417	15867.92
218.49	15910.29
218.563	15982.98
218.637	16028.28
218.71	16101.16
218.784	16147.91
218.857	16208.35
218.931	16259.39
219.004	16311.74
219.077	16356.99
219.151	16409.34
219.224	16453.58
219.298	16492.96
219.371	16548.82
219.444	16583.61
219.518	16634.8
219.591	16693.94
219.665	16762.08
219.738	16804.93
219.811	16843.2
219.885	16911.44
219.958	16965.23
220.031	17014.19
220.105	17057.23
220.178	17106.72
220.251	17143.01
220.325	17201.14
220.398	17243.02
220.471	17299.07
220.544	17352.27
220.618	17387.16
220.691	17432.17
220.764	17481.04
220.838	17531.98
220.911	17572.22
220.984	17634.68
221.057	17682.29
221.131	17722.97
221.204	17735.59
221.277	17803.78
221.35	17881.42
221.424	17925.28
221.497	17970.96
221.57	18009.08
221.643	18063.63
221.716	18117.41
221.79	18152.11
221.863	18186.33
221.936	18229.79
222.009	18254.61
222.082	18289.26
222.155	18335.48
222.229	18389.74
222.302	18433.06
222.375	18469.59
222.448	18507.13
222.521	18545.73
222.594	18584.23
222.667	18609
222.74	18662.83
222.814	18693.77
222.887	18724.51
222.96	18748.56
223.033	18780.66
223.106	18816.46
223.179	18847.78
223.252	18875.69
223.325	18917.27
223.398	18941.75
223.471	18974.38
223.544	19016.16
223.617	19047.53
223.69	19073.99
223.763	19089.17
223.837	19111.72
223.91	19145.26
223.983	19163.28
224.056	19174.8
224.129	19200.63
224.202	19236.19
224.275	19245.88
224.348	19253.73
224.42	19264.72
224.493	19276.67
224.566	19296.53
224.639	19331.03
224.712	19353.1
224.785	19377.82
224.858	19396.28
224.931	19417.19
225.004	19425.1
225.077	19440.71
225.15	19433.05
225.223	19452.42
225.296	19494.11
225.369	19503.79
225.442	19508.95
225.514	19529.48
225.587	19550.3
225.66	19574.44
225.733	19599.4
225.806	19622.87
225.879	19643.69
225.952	19647.88
226.025	19685.61
226.097	19715.83
226.17	19725.66
226.243	19717.08
226.316	19734.05
226.389	19749.47
226.461	19772.94
226.534	19800.26
226.607	19811.68
226.68	19853.99
226.753	19864.88
226.825	19859.77
226.898	19893.94
226.971	19903.58
227.044	19918.04
227.117	19934.13
227.189	19949.8
227.262	19973.22
227.335	19994.95
227.407	19998.81
227.48	20022.95
227.553	20023.77
227.626	20025.26
227.698	20042.27
227.771	20052.88
227.844	20043.62
227.916	20045.6
227.989	20035.14
228.062	20041.17
228.134	20079.82
228.207	20085.21
228.28	20085.6
228.352	20084.15
228.425	20077.41
228.498	20105.93
228.57	20111.72
228.643	20136.15
228.716	20135.28
228.788	20123.96
228.861	20124.44
228.934	20143.86
229.006	20151.77
229.079	20155.14
229.151	20160.54
229.224	20149.16
229.296	20162.32
229.369	20194.13
229.442	20216.34
229.514	20212.54
229.587	20214.7
229.659	20190.75
229.732	20201.74
229.804	20221.31
229.877	20247.09
229.949	20266.85
230.022	20282.27
230.094	20277.4
230.167	20275.38
230.239	20273.84
230.312	20278.9
230.384	20301.79
230.457	20306.61
230.529	20303.62
230.602	20309.11
230.674	20307.52
230.747	20317.02
230.819	20328.05
230.892	20293.88
230.964	20289.5
231.037	20305.02
231.109	20307.38
231.181	20319.04
231.254	20301.31
231.326	20297.11
231.399	20293.11
231.471	20284.58
231.544	20257.59
231.616	20267.96
231.688	20257.06
231.761	20244.39
231.833	20229.11
231.905	20189.5
231.978	20179.96
232.05	20173.4
232.122	20166.37
232.195	20164.39
232.267	20179.72
232.339	20167.28
232.412	20172.82
232.484	20169.79
232.556	20145.84
232.629	20158.51
232.701	20157.02
232.773	20153.98
232.846	20132.3
232.918	20121.74
232.99	20108.2
233.062	20112.25
233.135	20104.2
233.207	20091.53
233.279	20089.79
233.351	20091.43
233.424	20085.94
233.496	20070.23
233.568	20078.85
233.64	20048.2
233.713	20032.11
233.785	20015.62
233.857	20010.47
233.929	19995
234.001	19995.67
234.074	20006.56
234.146	19962.33
234.218	19941.84
234.29	19925.7
234.362	19908.06
234.434	19880.4
234.507	19852.16
234.579	19815.44
234.651	19786.86
234.723	19772.6
234.795	19765.32
234.867	19735.54
234.939	19737.37
235.012	19724.89
235.084	19695.78
235.156	19703.69
235.228	19673.76
235.3	19643.21
235.372	19623.74
235.444	19610.77
235.516	19571.64
235.588	19565.91
235.66	19562.54
235.732	19532.75
235.804	19568.56
235.876	19560.42
235.948	19554.01
236.02	19542.25
236.092	19514.01
236.164	19496.85
236.236	19467.8
236.308	19438.01
236.38	19423.85
236.452	19389.73
236.524	19366.93
236.596	19363.42
236.668	19342.07
236.74	19325.92
236.812	19312.33
236.884	19295.42
236.956	19273.35
237.028	19238.36
237.1	19191.04
237.172	19181.11
237.244	19173.98
237.316	19112.15
237.388	19078.23
237.46	19037.27
237.532	19020.88
237.604	18992.4
237.675	18991.44
237.747	18977.56
237.819	18954.04
237.891	18932.94
237.963	18894.91
238.035	18864.46
238.107	18802.68
238.178	18789.33
238.25	18766.3
238.322	18755.4
238.394	18702.83
238.466	18676.76
238.538	18658.98
238.609	18635.75
238.681	18581.68
238.753	18547.85
238.825	18520.82
238.897	18508.43
238.968	18505.83
239.04	18468.48
239.112	18471.28
239.184	18418.27
239.255	18384.53
239.327	18350.37
239.399	18325.89
239.471	18314.9
239.542	18288.54
239.614	18280.54
239.686	18213.22
239.758	18184.83
239.829	18138.18
239.901	18124.74
239.973	18095.25
240.044	18064.69
240.116	18041.13
240.188	18011.97
240.259	17970.53
240.331	17922.82
240.403	17889.33
240.474	17837.52
240.546	17801.76
240.618	17756.94
240.689	17724.08
240.761	17694.29
240.833	17677.19
240.904	17636.51
240.976	17596.18
241.048	17568.61
241.119	17535.31
241.191	17526.59
241.262	17514.97
241.334	17482.73
241.405	17451.17
241.477	17409.53
241.549	17382.92
241.62	17347.89
241.692	17312.51
241.763	17302.25
241.835	17270.25
241.906	17242.44
241.978	17196.13
242.049	17173.76
242.121	17141.86
242.192	17133.18
242.264	17093.18
242.335	17040.41
242.407	17022.39
242.478	16989.9
242.55	16960.02
242.621	16925.18
242.693	16880.93
242.764	16834.33
242.836	16793.94
242.907	16763.15
242.979	16741.27
243.05	16706.03
243.122	16679.19
243.193	16657.02
243.264	16603.72
243.336	16579.95
243.407	16554.56
243.479	16541.4
243.55	16512.38
243.622	16492.62
243.693	16451.27
243.764	16428.81
243.836	16395.31
243.907	16355.79
243.978	16312.56
244.05	16289.66
244.121	16239.15
244.192	16215.25
244.264	16177.12
244.335	16152.73
244.407	16104.73
244.478	16080.87
244.549	16053.3
244.62	16005.82
244.692	15972.04
244.763	15941.72
244.834	15900.94
244.906	15862.29
244.977	15834.81
245.048	15818.81
245.119	15769.46
245.191	15718.46
245.262	15667.9
245.333	15660.86
245.405	15636.47
245.476	15623.02
245.547	15587.6
245.618	15566.29
245.689	15532.89
245.761	15500.35
245.832	15463.53
245.903	15439.62
245.974	15407.52
246.045	15370.59
246.117	15351.6
246.188	15307.11
246.259	15266.91
246.33	15236.88
246.401	15203.52
246.473	15157.97
246.544	15124.47
246.615	15107.99
246.686	15078.73
246.757	15065.18
246.828	15015.1
246.899	14994.28
246.97	14947.61
247.042	14908.86
247.113	14888.95
247.184	14886.54
247.255	14846.48
247.326	14816.89
247.397	14789.02
247.468	14758.46
247.539	14734.55
247.61	14693.1
247.681	14678.68
247.752	14668.42
247.823	14629.95
247.894	14603.63
247.965	14567.62
248.037	14525.35
248.108	14488.23
248.179	14467.02
248.25	14432.41
248.321	14411.77
248.392	14367.67
248.463	14360.39
248.534	14329.1
248.605	14313.1
248.675	14274.63
248.746	14258.19
248.817	14235.97
248.888	14214.76
248.959	14165.2
249.03	14141.34
249.101	14110.2
249.172	14075.69
249.243	14026.18
249.314	14019.77
249.385	13989.93
249.456	13972.14
249.527	13939.65
249.598	13908.17
249.669	13872.16
249.739	13848.2
249.81	13827.09
249.881	13789.48
249.952	13759.93
250.023	13736.17
250.094	13681.94
250.165	13643.42
250.235	13612.23
250.306	13588.99
250.377	13550.04
250.448	13537.7
250.519	13488.97
250.59	13489.69
250.66	13465.92
250.731	13457.44
250.802	13429.72
250.873	13406.48
250.944	13389.08
251.014	13358.47
251.085	13358.76
251.156	13348.11
251.227	13340.87
251.297	13323.95
251.368	13316.24
251.439	13298.79
251.51	13291.32
251.58	13262.01
251.651	13238.73
251.722	13233.23
251.792	13191.29
251.863	13170.03
251.934	13162.61
252.005	13166.13
252.075	13138.26
252.146	13128.14
252.217	13116.81
252.287	13097.43
252.358	13071.06
252.429	13063.06
252.499	13035.63
252.57	13008.44
252.641	12992.58
252.711	12964.91
252.782	12925.53
252.852	12913.33
252.923	12891.69
252.994	12869.56
253.064	12859.97
253.135	12830.18
253.205	12789.73
253.276	12788.63
253.347	12778.79
253.417	12735.07
253.488	12707.83
253.558	12683.54
253.629	12656.16
253.699	12634.8
253.77	12624.15
253.841	12604.67
253.911	12579.94
253.982	12562.01
254.052	12556.66
254.123	12534.49
254.193	12518.87
254.264	12538.78
254.334	12512.02
254.405	12478.23
254.475	12441.79
254.546	12423.52
254.616	12419.76
254.687	12412.34
254.757	12390.26
254.827	12369.53
254.898	12359.89
254.968	12341.77
255.039	12312.61
255.109	12307.21
255.18	12278.53
255.25	12227.72
255.321	12211.72
255.391	12184.53
255.461	12191.57
255.532	12138.4
255.602	12116.13
255.673	12070.15
255.743	12037.22
255.813	11990.9
255.884	11981.79
255.954	11971.33
256.024	11969.5
256.095	11947.18
256.165	11910.5
256.235	11904.29
256.306	11872.96
256.376	11867.65
256.446	11855.22
256.517	11844.86
256.587	11826.64
256.657	11811.98
256.728	11801.38
256.798	11784.65
256.868	11762.29
256.938	11729.03
257.009	11718.52
257.079	11709.51
257.149	11717.08
257.219	11680.74
257.29	11668.4
257.36	11635.86
257.43	11623.82
257.5	11580.05
257.571	11549.4
257.641	11540
257.711	11499.61
257.781	11492.86
257.852	11471.61
257.922	11431.32
257.992	11412.33
258.062	11385.43
258.132	11374.01
258.202	11353.86
258.273	11334.59
258.343	11329
258.413	11307.84
258.483	11291.31
258.553	11264.37
258.623	11239.06
258.693	11222.87
258.764	11223.16
258.834	11213.81
258.904	11195.59
258.974	11169.81
259.044	11158.34
259.114	11148.99
259.184	11139.84
259.254	11115.98
259.324	11081.77
259.394	11072.71
259.464	11069.19
259.535	11050.15
259.605	11019.84
259.675	10997.05
259.745	10984.47
259.815	10954.69
259.885	10930.84
259.955	10937.29
260.025	10909.01
260.095	10893.2
260.165	10886.7
260.235	10880.62
260.305	10857.06
260.375	10824.63
260.445	10832.05
260.515	10828.48
260.585	10821.35
260.655	10799.67
260.725	10793.98
260.795	10779.48
260.865	10782.95
260.934	10760.59
261.004	10754.37
261.074	10749.46
261.144	10751.72
261.214	10739.48
261.284	10727.82
261.354	10718.67
261.424	10697.03
261.494	10700.74
261.564	10678.43
261.634	10665.18
261.703	10633.71
261.773	10629.57
261.843	10627.45
261.913	10610.73
