Data from 20250703_urea_0.1M_MAYP1162681_07-31-04-859.txt Node
Date: Fri Jul 04 07:31:04 BST 2025
User: adleo
Spectrometer: MAYP116268
Trigger mode: 0
Integration Time (sec): 1.000000E0
Scans to average: 1
Electric dark correction enabled: true
Nonlinearity correction enabled: true
Boxcar width: 10
XAxis mode: Wavelengths
Number of Pixels in Spectrum: 2068
>>>>>Begin Spectral Data<<<<<
179.565	1245.42
179.642	1302.13
179.718	1349.81
179.795	1389.75
179.871	1422.83
179.948	1439.8
180.024	1459.36
180.101	1482.9
180.177	1499.59
180.254	1522.56
180.33	1544.29
180.407	1600.32
180.483	1699.9
180.56	1793.69
180.636	1881.19
180.712	1866.26
180.789	1879.19
180.865	1893.4
180.942	1900.38
181.018	1913.74
181.095	1928.49
181.171	1931.67
181.248	1931.77
181.324	1946.84
181.4	1953.79
181.477	1969.24
181.553	1983.79
181.63	2007.19
181.706	2024.31
181.782	2029.3
181.859	2028.35
181.935	2035.72
182.011	2030.39
182.088	2045.71
182.164	2063.98
182.24	2075.82
182.317	2086.28
182.393	2081.67
182.469	2095.08
182.546	2111.11
182.622	2114.77
182.698	2107.44
182.775	2122.47
182.851	2139.07
182.927	2130.13
183.003	2127.9
183.08	2119.05
183.156	2127.99
183.232	2121.57
183.308	2108.39
183.385	2120.19
183.461	2140.36
183.537	2141.55
183.613	2158.86
183.69	2148.63
183.766	2139.16
183.842	2146.92
183.918	2153.15
183.995	2167.47
184.071	2169.85
184.147	2162.66
184.223	2151.58
184.299	2163.38
184.375	2150.97
184.452	2159.15
184.528	2209.07
184.604	2217.68
184.68	2228.05
184.756	2236.71
184.832	2244.75
184.908	2251.69
184.985	2249.08
185.061	2231.28
185.137	2239.09
185.213	2224.67
185.289	2227.86
185.365	2219.3
185.441	2218.44
185.517	2231.48
185.593	2229.15
185.669	2225.82
185.745	2237.24
185.822	2254.79
185.898	2244.56
185.974	2254.45
186.05	2243.84
186.126	2209.15
186.202	2202.59
186.278	2199.68
186.354	2189.69
186.43	2195.64
186.506	2192.31
186.582	2191.46
186.658	2198.4
186.734	2179.8
186.81	2179.56
186.886	2184.08
186.962	2197.31
187.038	2193.07
187.114	2185.84
187.19	2192.78
187.266	2185.55
187.341	2184.51
187.417	2175.09
187.493	2174.33
187.569	2179.13
187.645	2172.57
187.721	2161
187.797	2169.71
187.873	2174.8
187.949	2168.9
188.025	2162.62
188.101	2166.42
188.176	2173.51
188.252	2168.99
188.328	2176.7
188.404	2180.03
188.48	2174.08
188.556	2170.27
188.632	2170.65
188.707	2171.04
188.783	2165.37
188.859	2158.14
188.935	2147.3
189.011	2157.81
189.086	2152.82
189.162	2141.25
189.238	2140.54
189.314	2139.16
189.39	2132.93
189.465	2126.84
189.541	2142.16
189.617	2126.89
189.693	2120.04
189.768	2122.09
189.844	2146.22
189.92	2136.32
189.996	2146.93
190.071	2157.78
190.147	2153.69
190.223	2163.78
190.298	2153.74
190.374	2142.75
190.45	2156.88
190.526	2166.82
190.601	2161.35
190.677	2166.58
190.753	2193.19
190.828	2194.04
190.904	2209.7
190.98	2222.31
191.055	2231.68
191.131	2225.45
191.207	2246.86
191.282	2258.27
191.358	2250.09
191.433	2235.29
191.509	2250.46
191.585	2247.84
191.66	2249.79
191.736	2256.88
191.811	2247.65
191.887	2264.54
191.963	2288
192.038	2293.67
192.114	2291.81
192.189	2294.62
192.265	2288.63
192.34	2268.73
192.416	2269.91
192.491	2262.35
192.567	2268.49
192.642	2271.77
192.718	2270.25
192.793	2256.35
192.869	2251.36
192.944	2252.98
193.02	2260.92
193.095	2264.92
193.171	2266.78
193.246	2266.44
193.322	2263.64
193.397	2265.54
193.473	2250.88
193.548	2233.56
193.624	2239.22
193.699	2241.36
193.775	2262.02
193.85	2264.59
193.925	2272.25
194.001	2271.11
194.076	2265.93
194.152	2253.84
194.227	2243.03
194.302	2233.04
194.378	2236.14
194.453	2233.57
194.529	2248.18
194.604	2234.43
194.679	2226.86
194.755	2210.4
194.83	2219.3
194.905	2219.88
194.981	2228.73
195.056	2223.88
195.131	2227.63
195.207	2225.59
195.282	2212.08
195.357	2189.8
195.433	2205.12
195.508	2195.55
195.583	2203.07
195.659	2216.68
195.734	2222.72
195.809	2224.72
195.884	2235.9
195.96	2238.23
196.035	2255.31
196.11	2250.51
196.185	2261.4
196.261	2266.97
196.336	2298.47
196.411	2287.19
196.486	2291.81
196.561	2284.24
196.637	2292.71
196.712	2311.42
196.787	2312.51
196.862	2329.59
196.937	2339.68
197.013	2350.01
197.088	2360.24
197.163	2383.86
197.238	2402.54
197.313	2403.39
197.388	2418.05
197.464	2448.91
197.539	2460.05
197.614	2453.29
197.689	2465.82
197.764	2484.91
197.839	2506.15
197.914	2498.34
197.989	2520.96
198.065	2533.72
198.14	2584.37
198.215	2610.65
198.29	2619.9
198.365	2634.95
198.44	2648.76
198.515	2675.96
198.59	2686.73
198.665	2713.17
198.74	2724.37
198.815	2725.18
198.89	2750.33
198.965	2782.74
199.04	2778.74
199.115	2793.55
199.19	2835.72
199.265	2835.95
199.34	2845.58
199.415	2878.48
199.49	2903.21
199.565	2912.6
199.64	2937.72
199.715	2934.71
199.79	2944.05
199.865	2951.54
199.94	2949.25
200.015	2976.62
200.09	2980.57
200.165	2988.58
200.24	2998.93
200.315	3035.67
200.39	3051.84
200.464	3056.08
200.539	3053.17
200.614	3070.38
200.689	3094.61
200.764	3102.1
200.839	3123.73
200.914	3127.4
200.989	3118.53
201.063	3134.94
201.138	3118.54
201.213	3117.07
201.288	3098.52
201.363	3103.38
201.438	3107.82
201.512	3127.74
201.587	3112.05
201.662	3119.39
201.737	3130.94
201.812	3136.09
201.886	3104.44
201.961	3115.08
202.036	3104.22
202.111	3102.64
202.186	3073.62
202.26	3056.88
202.335	3036.37
202.41	3031.03
202.485	3014.16
202.559	2992.94
202.634	2968.24
202.709	2978.3
202.784	2962.28
202.858	2966.19
202.933	2948.64
203.008	2941.4
203.082	2921
203.157	2926.48
203.232	2888.02
203.306	2873.96
203.381	2844.83
203.456	2826.33
203.53	2807.3
203.605	2795.44
203.68	2778.08
203.754	2780.23
203.829	2773.7
203.904	2759.45
203.978	2757.35
204.053	2773.56
204.127	2773.75
204.202	2778.94
204.277	2774.32
204.351	2782.42
204.426	2785.38
204.5	2795.82
204.575	2781.62
204.65	2808.7
204.724	2819.76
204.799	2848.68
204.873	2864.8
204.948	2892.54
205.022	2904.94
205.097	2925.59
205.171	2963.54
205.246	3001.6
205.32	3028.63
205.395	3063.07
205.469	3088.85
205.544	3130.8
205.618	3149.93
205.693	3199.69
205.767	3230.41
205.842	3294.07
205.916	3332.92
205.991	3373.48
206.065	3424.32
206.14	3491.03
206.214	3540.94
206.289	3584.55
206.363	3651.03
206.438	3714.73
206.512	3774.11
206.586	3853.75
206.661	3920.92
206.735	3965.63
206.81	4030.18
206.884	4117.56
206.958	4169.95
207.033	4260.38
207.107	4341.21
207.181	4444.31
207.256	4509.18
207.33	4604.44
207.405	4696.35
207.479	4795.82
207.553	4881.5
207.628	4944.1
207.702	5034.8
207.776	5109.9
207.851	5197.7
207.925	5295.76
207.999	5381.7
208.073	5467.25
208.148	5558.72
208.222	5638.42
208.296	5754.17
208.371	5859.81
208.445	5963.35
208.519	6084.65
208.593	6190.22
208.668	6275.47
208.742	6373.23
208.816	6476.51
208.89	6581.04
208.965	6676.46
209.039	6774.16
209.113	6889
209.187	7007.21
209.261	7101.6
209.336	7219.61
209.41	7334.22
209.484	7427.86
209.558	7537.18
209.632	7645.33
209.707	7751.2
209.781	7871.32
209.855	7990.98
209.929	8111.07
210.003	8204.44
210.077	8304.41
210.151	8447.88
210.226	8583.3
210.3	8705.47
210.374	8825.15
210.448	8930.66
210.522	9035.27
210.596	9147.05
210.67	9246.66
210.744	9393.85
210.818	9516.42
210.892	9627.85
210.966	9717.94
211.041	9834.05
211.115	9928.16
211.189	10050.98
211.263	10162.1
211.337	10256.22
211.411	10360.77
211.485	10442.67
211.559	10547.02
211.633	10639.71
211.707	10691.84
211.781	10786.54
211.855	10843.64
211.929	10923.53
212.003	10984.82
212.077	11083.75
212.151	11179.56
212.225	11281.34
212.299	11352.34
212.373	11435.13
212.447	11520.97
212.52	11637.12
212.594	11726.97
212.668	11821.05
212.742	11888.19
212.816	11966.8
212.89	12051.73
212.964	12124.42
213.038	12210.27
213.112	12306.92
213.186	12402.07
213.26	12467.72
213.333	12498.95
213.407	12579.74
213.481	12658.6
213.555	12759.97
213.629	12824.18
213.703	12884.58
213.777	12956.46
213.85	13013.44
213.924	13117.03
213.998	13194.3
214.072	13259.33
214.146	13316.89
214.219	13387.85
214.293	13454.86
214.367	13526.06
214.441	13602.8
214.515	13674.73
214.588	13717.78
214.662	13751.14
214.736	13793.32
214.81	13866.88
214.883	13942.37
214.957	14003.88
215.031	14055.61
215.105	14091.18
215.178	14138.33
215.252	14195.6
215.326	14238.79
215.4	14285.94
215.473	14306.52
215.547	14338.67
215.621	14387.79
215.694	14442.94
215.768	14476.01
215.842	14526.91
215.915	14567.69
215.989	14590.93
216.063	14632.57
216.136	14686.13
216.21	14739.83
216.284	14810.16
216.357	14865.45
216.431	14914.81
216.504	14975.55
216.578	15056.82
216.652	15121.5
216.725	15171.59
216.799	15241.58
216.873	15288.09
216.946	15337.69
217.02	15372.4
217.093	15421.47
217.167	15454
217.24	15493.43
217.314	15540.04
217.387	15577.06
217.461	15617.7
217.535	15685.47
217.608	15726.53
217.682	15782.11
217.755	15846.89
217.829	15886.17
217.902	15936.49
217.976	15981.36
218.049	16014.43
218.123	16046.43
218.196	16099.06
218.27	16145.14
218.343	16173.14
218.417	16224.91
218.49	16277.25
218.563	16342.7
218.637	16396.59
218.71	16463.29
218.784	16520.69
218.857	16586.63
218.931	16647.02
219.004	16708.56
219.077	16765.1
219.151	16807.85
219.224	16848.23
219.298	16885.2
219.371	16945.97
219.444	16975.8
219.518	17020.58
219.591	17064.24
219.665	17134.07
219.738	17183.95
219.811	17221.59
219.885	17274.75
219.958	17326.08
220.031	17376.54
220.105	17427.67
220.178	17473.93
220.251	17508.92
220.325	17562.99
220.398	17601.93
220.471	17650.99
220.544	17698.75
220.618	17727.52
220.691	17781.64
220.764	17832.48
220.838	17887.47
220.911	17917.01
220.984	17983.61
221.057	18043.61
221.131	18097.2
221.204	18116.52
221.277	18170.11
221.35	18247.55
221.424	18287.21
221.497	18333.52
221.57	18371.35
221.643	18414.19
221.716	18466.96
221.79	18506.62
221.863	18543.2
221.936	18582.43
222.009	18617.41
222.082	18654.66
222.155	18694.61
222.229	18754.27
222.302	18790.46
222.375	18823.38
222.448	18876.38
222.521	18914.17
222.594	18942.55
222.667	18971.42
222.74	19010.3
222.814	19039.99
222.887	19060.47
222.96	19101.05
223.033	19137.91
223.106	19175.88
223.179	19216.46
223.252	19249.86
223.325	19281.85
223.398	19310.91
223.471	19345.56
223.544	19376.84
223.617	19410.71
223.69	19438.33
223.763	19440.69
223.837	19469.99
223.91	19499.91
223.983	19510.47
224.056	19524.54
224.129	19556.97
224.202	19586.51
224.275	19602.22
224.348	19613.93
224.42	19622.94
224.493	19626.22
224.566	19639.28
224.639	19666.36
224.712	19676.14
224.785	19688
224.858	19702.5
224.931	19711.47
225.004	19719.66
225.077	19745.97
225.15	19737.44
225.223	19754.89
225.296	19804.09
225.369	19805.78
225.442	19815.8
225.514	19834.88
225.587	19845.82
225.66	19862.59
225.733	19883.51
225.806	19900.13
225.879	19915.41
225.952	19922.98
226.025	19957.1
226.097	19985.82
226.17	19993.43
226.243	19987.07
226.316	19996.13
226.389	20017.62
226.461	20045.34
226.534	20071.98
226.607	20072.95
226.68	20106.97
226.753	20117.14
226.825	20109.43
226.898	20143.02
226.971	20158.73
227.044	20176.32
227.117	20196.13
227.189	20215.21
227.262	20243.69
227.335	20264.61
227.407	20279.74
227.48	20304.27
227.553	20311.98
227.626	20320.89
227.698	20335.79
227.771	20355.98
227.844	20345.95
227.916	20354.92
227.989	20348.94
228.062	20343.74
228.134	20369.71
228.207	20375.16
228.28	20371.69
228.352	20368.46
228.425	20373.47
228.498	20385.23
228.57	20382.15
228.643	20393.95
228.716	20391.59
228.788	20380.99
228.861	20381.04
228.934	20399.5
229.006	20399.3
229.079	20395.59
229.151	20397.33
229.224	20375.5
229.296	20388.41
229.369	20439.26
229.442	20459.16
229.514	20456.22
229.587	20479.59
229.659	20471.16
229.732	20485.57
229.804	20510.05
229.877	20539.45
229.949	20549.57
230.022	20570.25
230.094	20566.29
230.167	20577.48
230.239	20565.23
230.312	20568.99
230.384	20583.89
230.457	20581.28
230.529	20576.51
230.602	20582.25
230.674	20579.89
230.747	20596.42
230.819	20602.87
230.892	20555.11
230.964	20550.54
231.037	20546.68
231.109	20536.85
231.181	20538.05
231.254	20516.03
231.326	20515.31
231.399	20499.59
231.471	20484.12
231.544	20453.67
231.616	20458.34
231.688	20444.08
231.761	20436.8
231.833	20426.82
231.905	20404.27
231.978	20398.34
232.05	20405.42
232.122	20403.3
232.195	20392.51
232.267	20395.54
232.339	20374.97
232.412	20391.79
232.484	20369.91
232.556	20355.11
232.629	20359.88
232.701	20361.42
232.773	20361.91
232.846	20336.99
232.918	20329.14
232.99	20317.91
233.062	20319.5
233.135	20309.33
233.207	20296.85
233.279	20288.46
233.351	20288.9
233.424	20270.39
233.496	20244.32
233.568	20250.63
233.64	20213.43
233.713	20203.21
233.785	20193.57
233.857	20181.52
233.929	20149.43
234.001	20156.66
234.074	20161.86
234.146	20132.66
234.218	20106.25
234.29	20083.36
234.362	20065.91
234.434	20035.94
234.507	20012.66
234.579	19973.58
234.651	19953.87
234.723	19934.74
234.795	19925.58
234.867	19897.68
234.939	19894.55
235.012	19883.56
235.084	19860.52
235.156	19857.58
235.228	19823.66
235.3	19795.99
235.372	19784.14
235.444	19776.57
235.516	19724.91
235.588	19710.79
235.66	19689.64
235.732	19661.21
235.804	19700
235.876	19685.3
235.948	19677.16
236.02	19653.64
236.092	19638.41
236.164	19617.98
236.236	19592.82
236.308	19562.71
236.38	19542.85
236.452	19512.49
236.524	19492.59
236.596	19475.43
236.668	19463.29
236.74	19439.63
236.812	19414.52
236.884	19398.81
236.956	19387.05
237.028	19365.13
237.1	19327.01
237.172	19319.01
237.244	19313.66
237.316	19252.6
237.388	19223.59
237.46	19196.51
237.532	19186.49
237.604	19147.02
237.675	19136.75
237.747	19120.95
237.819	19086.68
237.891	19054.88
237.963	19020.13
238.035	18979.75
238.107	18918.17
238.178	18901.97
238.25	18876.82
238.322	18872.43
238.394	18818.56
238.466	18771.23
238.538	18751.48
238.609	18732.2
238.681	18678.71
238.753	18640.25
238.825	18612.64
238.897	18587.68
238.968	18567.01
239.04	18528.79
239.112	18523.97
239.184	18472.99
239.255	18440.65
239.327	18419.4
239.399	18390.44
239.471	18372.17
239.542	18352.37
239.614	18339.11
239.686	18277.77
239.758	18257.87
239.829	18210.49
239.901	18205.53
239.973	18185.58
240.044	18158.5
240.116	18123.32
240.188	18095.85
240.259	18066.45
240.331	18021.49
240.403	17994.36
240.474	17948
240.546	17910.8
240.618	17869.06
240.689	17843.76
240.761	17806.85
240.833	17798.85
240.904	17770.56
240.976	17737.4
241.048	17707.09
241.119	17682.32
241.191	17659.52
241.262	17638.99
241.334	17613.21
241.405	17572.83
241.477	17527.72
241.549	17483.62
241.62	17463.43
241.692	17439.33
241.763	17420.63
241.835	17389.84
241.906	17358.61
241.978	17316.01
242.049	17296.1
242.121	17261.89
242.192	17238.85
242.264	17195.52
242.335	17142.03
242.407	17116.97
242.478	17078.56
242.55	17051.81
242.621	17010.7
242.693	16978.75
242.764	16936.62
242.836	16883.61
242.907	16859.95
242.979	16833.49
243.05	16814.5
243.122	16780.23
243.193	16737.53
243.264	16677.62
243.336	16643.5
243.407	16619.55
243.479	16605.96
243.55	16571.59
243.622	16555.01
243.693	16524.55
243.764	16512.55
243.836	16472.36
243.907	16432.3
243.978	16402.9
244.05	16372.54
244.121	16325.02
244.192	16296.53
244.264	16254.21
244.335	16232.19
244.407	16173.77
244.478	16145.53
244.549	16105.14
244.62	16054.87
244.692	16031.15
244.763	16007.87
244.834	15968.11
244.906	15922.95
244.977	15891.18
245.048	15881.54
245.119	15839.61
245.191	15797.77
245.262	15739.11
245.333	15724.94
245.405	15692.99
245.476	15656.11
245.547	15626.23
245.618	15608.54
245.689	15580.73
245.761	15552.77
245.832	15523.61
245.903	15502.88
245.974	15477.34
246.045	15447.55
246.117	15440.46
246.188	15395.54
246.259	15349.12
246.33	15317.83
246.401	15289.83
246.473	15243.51
246.544	15200.99
246.615	15178.05
246.686	15139.68
246.757	15130.28
246.828	15087.52
246.899	15069.3
246.97	15031.46
247.042	14986.49
247.113	14962.2
247.184	14951.93
247.255	14918.04
247.326	14887.48
247.397	14854.17
247.468	14827.37
247.539	14802.11
247.61	14746.29
247.681	14722.38
247.752	14716.45
247.823	14673.84
247.894	14649.21
247.965	14609.05
248.037	14572.27
248.108	14524.16
248.179	14496.54
248.25	14460.97
248.321	14437.97
248.392	14398.73
248.463	14395.17
248.534	14368.17
248.605	14346.34
248.675	14310.52
248.746	14292.35
248.817	14271.71
248.888	14253.73
248.959	14199.89
249.03	14182.58
249.101	14159.11
249.172	14131.68
249.243	14081.64
249.314	14081.88
249.385	14049.49
249.456	14043.7
249.527	14016.27
249.598	14004.51
249.669	13982.38
249.739	13959.29
249.81	13942.8
249.881	13900.96
249.952	13870.83
250.023	13841.91
250.094	13800.4
250.165	13765.02
250.235	13726.94
250.306	13699.94
250.377	13661.71
250.448	13648.46
250.519	13591.81
250.59	13588.3
250.66	13556.67
250.731	13547.99
250.802	13514.97
250.873	13491.5
250.944	13457.8
251.014	13422.61
251.085	13417.93
251.156	13392.96
251.227	13383.42
251.297	13360.86
251.368	13357.72
251.439	13346.83
251.51	13335.02
251.58	13296.65
251.651	13266.28
251.722	13262.37
251.792	13226.36
251.863	13202.74
251.934	13197.24
252.005	13199.99
252.075	13167.5
252.146	13153.04
252.217	13144.75
252.287	13133.13
252.358	13110.62
252.429	13107.72
252.499	13085.55
252.57	13058.84
252.641	13040.62
252.711	13020.76
252.782	12979.64
252.852	12977.38
252.923	12947.49
252.994	12930.47
253.064	12926.81
253.135	12896.77
253.205	12869.97
253.276	12873.11
253.347	12871.8
253.417	12840.13
253.488	12820.8
253.558	12794.05
253.629	12772.12
253.699	12755.44
253.77	12741.41
253.841	12721.02
253.911	12705.78
253.982	12691.56
254.052	12681.39
254.123	12671.75
254.193	12648.61
254.264	12671.8
254.334	12630.58
254.405	12597.32
254.475	12563.53
254.546	12540.15
254.616	12535.38
254.687	12512.15
254.757	12484.24
254.827	12453.87
254.898	12429.04
254.968	12407.4
255.039	12380.36
255.109	12365.66
255.18	12327.33
255.25	12277.73
255.321	12267.03
255.391	12228.61
255.461	12229.53
255.532	12178.14
255.602	12148.55
255.673	12107.19
255.743	12078.12
255.813	12028.62
255.884	12021.25
255.954	12007.32
256.024	12002.83
256.095	11978.59
256.165	11948.66
256.235	11933.23
256.306	11907.54
256.376	11904.5
256.446	11891.15
256.517	11877.61
256.587	11872.55
256.657	11858.13
256.728	11848.59
256.798	11825.46
256.868	11803.24
256.938	11765.49
257.009	11756.82
257.079	11743.18
257.149	11747.8
257.219	11703.46
257.29	11696.71
257.36	11653
257.43	11650.54
257.5	11608.18
257.571	11586.68
257.641	11583.02
257.711	11552.55
257.781	11547.78
257.852	11536.41
257.922	11498.48
257.992	11486.24
258.062	11462.81
258.132	11445.85
258.202	11425.7
258.273	11414.13
258.343	11417.89
258.413	11388.54
258.483	11376.73
258.553	11347.29
258.623	11323.67
258.693	11310.08
258.764	11313.7
258.834	11316.2
258.904	11295.04
258.974	11270.37
259.044	11250.37
259.114	11232.44
259.184	11215.86
259.254	11184.73
259.324	11137.74
259.394	11126.8
259.464	11126.13
259.535	11106.76
259.605	11084.88
259.675	11057.8
259.745	11033.6
259.815	10997.27
259.885	10981.8
259.955	10984.93
260.025	10959.49
260.095	10939.54
260.165	10925.27
260.235	10921.66
260.305	10891.59
260.375	10862.34
260.445	10876.17
260.515	10874.38
260.585	10873.04
260.655	10861.52
260.725	10863.01
260.795	10859.83
260.865	10864.7
260.934	10836.94
261.004	10827.21
261.074	10814.39
261.144	10816.9
261.214	10815.79
261.284	10799.5
261.354	10797.09
261.424	10771.6
261.494	10775.36
261.564	10765.62
261.634	10762.06
261.703	10726.93
261.773	10729.1
261.843	10717.68
261.913	10696.96
261.983	10666.99
