Data from 20250703_urea_0.1M_MAYP1162681_19-11-05-432.txt Node
Date: Thu Jul 03 19:11:05 BST 2025
User: adleo
Spectrometer: MAYP116268
Trigger mode: 0
Integration Time (sec): 1.000000E0
Scans to average: 1
Electric dark correction enabled: true
Nonlinearity correction enabled: true
Boxcar width: 10
XAxis mode: Wavelengths
Number of Pixels in Spectrum: 2068
>>>>>Begin Spectral Data<<<<<
179.565	1370.32
179.642	1432.93
179.718	1482.38
179.795	1527.26
179.871	1568.49
179.948	1587.71
180.024	1611.13
180.101	1637.77
180.177	1654.41
180.254	1680.72
180.33	1705.67
180.407	1771.12
180.483	1878.92
180.56	1985.13
180.636	2081.8
180.712	2066.53
180.789	2073.57
180.865	2088.02
180.942	2099.72
181.018	2108.19
181.095	2124.18
181.171	2126.56
181.248	2129.13
181.324	2146.55
181.4	2154.44
181.477	2163.72
181.553	2178.7
181.63	2203.73
181.706	2219.24
181.782	2228.19
181.859	2224.38
181.935	2230.99
182.011	2226.47
182.088	2245.13
182.164	2262.46
182.24	2277.83
182.317	2291.39
182.393	2292.38
182.469	2309.8
182.546	2323.18
182.622	2328.36
182.698	2321.22
182.775	2337.26
182.851	2353.92
182.927	2343.88
183.003	2338.45
183.08	2332.5
183.156	2342.26
183.232	2335.69
183.308	2324.84
183.385	2334.5
183.461	2359.58
183.537	2359.2
183.613	2373.24
183.69	2364.72
183.766	2355.01
183.842	2360.72
183.918	2365.1
183.995	2377.9
184.071	2381
184.147	2375
184.223	2365.63
184.299	2381.01
184.375	2369.2
184.452	2375.92
184.528	2427.19
184.604	2437.8
184.68	2450.51
184.756	2459.65
184.832	2468.08
184.908	2474.12
184.985	2474.55
185.061	2453.65
185.137	2466.03
185.213	2455.32
185.289	2456.66
185.365	2446.57
185.441	2446.23
185.517	2461.52
185.593	2460.14
185.669	2457.14
185.745	2471.85
185.822	2486.51
185.898	2475.75
185.974	2485.17
186.05	2476.12
186.126	2443.85
186.202	2439.04
186.278	2435.99
186.354	2425.9
186.43	2432.9
186.506	2431.47
186.582	2431
186.658	2437.66
186.734	2415.38
186.81	2418.47
186.886	2419.57
186.962	2436.18
187.038	2434.71
187.114	2425.56
187.19	2431.85
187.266	2421.47
187.341	2419.95
187.417	2412.42
187.493	2412.9
187.569	2415.38
187.645	2407.81
187.721	2395.24
187.797	2403.04
187.873	2406.09
187.949	2398.05
188.025	2390.19
188.101	2394
188.176	2396.76
188.252	2391.47
188.328	2399.13
188.404	2397.47
188.48	2392.09
188.556	2381.43
188.632	2378.62
188.707	2381.71
188.783	2379.19
188.859	2372.39
188.935	2358.58
189.011	2367.72
189.086	2357.58
189.162	2347.73
189.238	2345.25
189.314	2342.06
189.39	2336.11
189.465	2328.35
189.541	2346.82
189.617	2329.07
189.693	2323.6
189.768	2329.26
189.844	2358.26
189.92	2347.46
189.996	2357.75
190.071	2371.12
190.147	2370.65
190.223	2379.55
190.298	2370.03
190.374	2355.7
190.45	2368.83
190.526	2379.35
190.601	2375.12
190.677	2378.49
190.753	2411.12
190.828	2414.98
190.904	2429.16
190.98	2444.07
191.055	2457.35
191.131	2448.26
191.207	2471.34
191.282	2482.25
191.358	2471.77
191.433	2455.58
191.509	2471.71
191.585	2467.75
191.66	2469.09
191.736	2479.61
191.811	2470.75
191.887	2486.95
191.963	2513.18
192.038	2518.66
192.114	2519.71
192.189	2521.61
192.265	2518.99
192.34	2495.36
192.416	2492.98
192.491	2489.17
192.567	2491.27
192.642	2495.46
192.718	2497.17
192.793	2480.84
192.869	2474.61
192.944	2477.13
193.02	2483.03
193.095	2485.37
193.171	2494.37
193.246	2490.22
193.322	2486.6
193.397	2488.89
193.473	2473.74
193.548	2451.84
193.624	2458.32
193.699	2453.41
193.775	2471.37
193.85	2473.03
193.925	2482.46
194.001	2482.13
194.076	2476.8
194.152	2465.46
194.227	2455.89
194.302	2443.75
194.378	2451.27
194.453	2448.37
194.529	2460.85
194.604	2448.56
194.679	2443.28
194.755	2422.71
194.83	2440.29
194.905	2437.05
194.981	2445.67
195.056	2437.72
195.131	2446.82
195.207	2446.82
195.282	2441.58
195.357	2423.1
195.433	2443.48
195.508	2430.14
195.583	2437.71
195.659	2452.19
195.734	2460.43
195.809	2458.14
195.884	2471.76
195.96	2470.9
196.035	2488.9
196.11	2481.47
196.185	2492.37
196.261	2497.04
196.336	2531.08
196.411	2514.27
196.486	2523.79
196.561	2516.13
196.637	2529.55
196.712	2548.27
196.787	2551.46
196.862	2567.08
196.937	2577.13
197.013	2581.23
197.088	2589.8
197.163	2615.81
197.238	2635.5
197.313	2635.69
197.388	2651.55
197.464	2682.76
197.539	2695.39
197.614	2685.34
197.689	2704.25
197.764	2722.26
197.839	2745.8
197.914	2736.6
197.989	2760.04
198.065	2770.43
198.14	2824.87
198.215	2850.47
198.29	2862.48
198.365	2876.06
198.44	2888.46
198.515	2919.44
198.59	2935.98
198.665	2970.69
198.74	2980.56
198.815	2980.65
198.89	3003.25
198.965	3038.11
199.04	3034.92
199.115	3053.17
199.19	3102.42
199.265	3107.47
199.34	3116.87
199.415	3154.28
199.49	3181.02
199.565	3191.9
199.64	3217.55
199.715	3213.5
199.79	3223.27
199.865	3228.28
199.94	3228.86
200.015	3261.54
200.09	3264.54
200.165	3274.85
200.24	3279.57
200.315	3323.46
200.39	3344.07
200.464	3356.53
200.539	3355.33
200.614	3372.41
200.689	3399.66
200.764	3403.82
200.839	3423.13
200.914	3430.34
200.989	3415.73
201.063	3430.14
201.138	3412.97
201.213	3414.41
201.288	3396.56
201.363	3400.57
201.438	3401
201.512	3419.51
201.587	3401.75
201.662	3407.77
201.737	3415.4
201.812	3425.95
201.886	3386.41
201.961	3395.72
202.036	3380.41
202.111	3378.64
202.186	3349.69
202.26	3330.31
202.335	3308.03
202.41	3301.35
202.485	3284.13
202.559	3267.14
202.634	3239.47
202.709	3252.3
202.784	3239.27
202.858	3242.52
202.933	3226.15
203.008	3224.15
203.082	3205.98
203.157	3207.65
203.232	3166.45
203.306	3155.14
203.381	3124.94
203.456	3111.2
203.53	3093.2
203.605	3082.33
203.68	3068.88
203.754	3071.54
203.829	3068.4
203.904	3060.62
203.978	3065.63
204.053	3093.45
204.127	3093.92
204.202	3114.48
204.277	3118.25
204.351	3132.85
204.426	3150.08
204.5	3168.83
204.575	3162.82
204.65	3200.23
204.724	3226.3
204.799	3270.22
204.873	3296.76
204.948	3335.51
205.022	3361.76
205.097	3397.01
205.171	3458.87
205.246	3516.23
205.32	3564.82
205.395	3615.11
205.469	3663.32
205.544	3725.97
205.618	3764.58
205.693	3847.92
205.767	3897.66
205.842	3986
205.916	4047.57
205.991	4110.44
206.065	4194.18
206.14	4287.53
206.214	4367.4
206.289	4443.39
206.363	4544.4
206.438	4642.26
206.512	4747.97
206.586	4869.19
206.661	4978.95
206.735	5056.62
206.81	5162.02
206.884	5286.24
206.958	5386.81
207.033	5520.12
207.107	5644.46
207.181	5796.8
207.256	5906.5
207.33	6054.54
207.405	6194.05
207.479	6345.03
207.553	6484.75
207.628	6593.27
207.702	6741.2
207.776	6872.71
207.851	7015.75
207.925	7165.1
207.999	7302.98
208.073	7435.78
208.148	7577.02
208.222	7707.09
208.296	7886.11
208.371	8052.66
208.445	8213.18
208.519	8387.01
208.593	8545.11
208.668	8690.27
208.742	8846.68
208.816	9004.78
208.89	9169.19
208.965	9320.4
209.039	9476.37
209.113	9645.48
209.187	9827.81
209.261	9982.02
209.336	10162.84
209.41	10338.48
209.484	10500.88
209.558	10678.9
209.632	10852.97
209.707	11024.02
209.781	11205.44
209.855	11372.71
209.929	11549.21
210.003	11712.78
210.077	11867.48
210.151	12077.44
210.226	12270.38
210.3	12447.62
210.374	12616.9
210.448	12774.57
210.522	12939.57
210.596	13105.97
210.67	13273.43
210.744	13471.11
210.818	13648.5
210.892	13824.16
210.966	13969.35
211.041	14131.18
211.115	14272.37
211.189	14452.27
211.263	14616.4
211.337	14760.15
211.411	14927.99
211.485	15052.79
211.559	15203.86
211.633	15350.25
211.707	15456.2
211.781	15598.67
211.855	15697.39
211.929	15832.64
212.003	15932.8
212.077	16077.35
212.151	16221.85
212.225	16356.75
212.299	16473.49
212.373	16589.64
212.447	16693.26
212.52	16839.73
212.594	16966.43
212.668	17101.72
212.742	17197.67
212.816	17310.01
212.89	17415.07
212.964	17518.21
213.038	17648.57
213.112	17781.24
213.186	17913.29
213.26	17993.72
213.333	18050.15
213.407	18162.24
213.481	18264.36
213.555	18407.35
213.629	18499.39
213.703	18589.41
213.777	18683.62
213.85	18766.12
213.924	18915.28
213.998	19018.93
214.072	19116.47
214.146	19199.16
214.219	19291.5
214.293	19384.36
214.367	19481.46
214.441	19594.32
214.515	19687.91
214.588	19748.15
214.662	19804.82
214.736	19867.86
214.81	19973.83
214.883	20076.52
214.957	20154.59
215.031	20230.06
215.105	20265.67
215.178	20321.04
215.252	20389.67
215.326	20452.42
215.4	20506.15
215.473	20516.13
215.547	20568.51
215.621	20627.31
215.694	20713.77
215.768	20752.43
215.842	20803.27
215.915	20850.99
215.989	20885.88
216.063	20939.38
216.136	21001.21
216.21	21047.63
216.284	21113.46
216.357	21169.81
216.431	21216.22
216.504	21286.54
216.578	21370.99
216.652	21451.67
216.725	21521.17
216.799	21592.32
216.873	21644.95
216.946	21713.25
217.02	21774.71
217.093	21830.91
217.167	21848.46
217.24	21874.25
217.314	21932.76
217.387	21979.66
217.461	22018.08
217.535	22087.98
217.608	22119.27
217.682	22159.37
217.755	22217.12
217.829	22257.86
217.902	22302.06
217.976	22356.15
218.049	22388.93
218.123	22416.32
218.196	22473.74
218.27	22516.16
218.343	22541.52
218.417	22586.94
218.49	22640.5
218.563	22683.7
218.637	22734.47
218.71	22810.45
218.784	22853.75
218.857	22905.15
218.931	22942.03
219.004	22990.58
219.077	23029.68
219.151	23078.09
219.224	23117.58
219.298	23165.85
219.371	23216.09
219.444	23244.88
219.518	23279.69
219.591	23316.87
219.665	23388.73
219.738	23417.13
219.811	23428.46
219.885	23459.66
219.958	23501.28
220.031	23516.08
220.105	23561.22
220.178	23593.87
220.251	23610.46
220.325	23648.13
220.398	23682.56
220.471	23723.02
220.544	23761.02
220.618	23776.46
220.691	23808.48
220.764	23834.62
220.838	23857.53
220.911	23876.39
220.984	23928.33
221.057	23970.15
221.131	23999.09
221.204	23983.75
221.277	24027.06
221.35	24096.32
221.424	24118.27
221.497	24138.24
221.57	24171.33
221.643	24199.4
221.716	24219.66
221.79	24243.68
221.863	24264.28
221.936	24277.69
222.009	24302.48
222.082	24326.89
222.155	24353.27
222.229	24386.8
222.302	24421.24
222.375	24434.85
222.448	24455.54
222.521	24457.32
222.594	24458.96
222.667	24462.68
222.74	24487.76
222.814	24488.73
222.887	24486.89
222.96	24510.34
223.033	24536
223.106	24530.41
223.179	24543.05
223.252	24560.18
223.325	24570.36
223.398	24582.75
223.471	24596.02
223.544	24593.7
223.617	24593.08
223.69	24591.49
223.763	24574.26
223.837	24577.11
223.91	24589.46
223.983	24575.47
224.056	24566.83
224.129	24571.37
224.202	24584.73
224.275	24579.14
224.348	24571.61
224.42	24553.57
224.493	24536.35
224.566	24522.88
224.639	24530.46
224.712	24515.21
224.785	24503.49
224.858	24496.98
224.931	24492.59
225.004	24470.15
225.077	24472.37
225.15	24436.44
225.223	24432.67
225.296	24449.51
225.369	24431.81
225.442	24407.78
225.514	24412.56
225.587	24411.4
225.66	24400.5
225.733	24396.35
225.806	24396.35
225.879	24387.81
225.952	24367.75
226.025	24368.71
226.097	24377.64
226.17	24379.71
226.243	24350.91
226.316	24342.57
226.389	24334.46
226.461	24329.11
226.534	24325.2
226.607	24307.31
226.68	24327.08
226.753	24313.58
226.825	24283.91
226.898	24278.94
226.971	24276.96
227.044	24257.76
227.117	24255.3
227.189	24247.68
227.262	24230.99
227.335	24215.02
227.407	24201.33
227.48	24202.19
227.553	24198.67
227.626	24164.42
227.698	24140.74
227.771	24132.35
227.844	24103.41
227.916	24092.17
227.989	24051.75
228.062	24034.87
228.134	24049.72
228.207	24025.8
228.28	24004.53
228.352	23983.12
228.425	23968.69
228.498	23962.95
228.57	23946.8
228.643	23934.84
228.716	23917.42
228.788	23896.2
228.861	23868.66
228.934	23858.25
229.006	23844.5
229.079	23815.9
229.151	23802.2
229.224	23764.59
229.296	23750.65
229.369	23756.63
229.442	23752.53
229.514	23730.35
229.587	23719.3
229.659	23670.74
229.732	23661.04
229.804	23654.15
229.877	23668.95
229.949	23663.12
230.022	23658.68
230.094	23639.39
230.167	23621.4
230.239	23585.33
230.312	23564.6
230.384	23581.38
230.457	23564.26
230.529	23538.9
230.602	23525.15
230.674	23500.9
230.747	23506.01
230.819	23493.08
230.892	23438.69
230.964	23418.29
231.037	23405.99
231.109	23382.03
231.181	23372.58
231.254	23336.36
231.326	23313.36
231.399	23278.4
231.471	23241.27
231.544	23189.86
231.616	23174.91
231.688	23155.96
231.761	23131.42
231.833	23101.14
231.905	23041.83
231.978	23013.14
232.05	22983.3
232.122	22957.89
232.195	22934.6
232.267	22916.37
232.339	22886.43
232.412	22883.78
232.484	22845.59
232.556	22817.48
232.629	22818.45
232.701	22794.19
232.773	22772.02
232.846	22737.98
232.918	22705.14
232.99	22674.1
233.062	22660.93
233.135	22641.7
233.207	22596.18
233.279	22585.77
233.351	22573.67
233.424	22543.64
233.496	22505.41
233.568	22508.06
233.64	22460.91
233.713	22424.56
233.785	22385.9
233.857	22356.06
233.929	22305.97
234.001	22292.23
234.074	22268.66
234.146	22221.8
234.218	22188.25
234.29	22157.01
234.362	22124.52
234.434	22076.17
234.507	22035.97
234.579	21983.28
234.651	21937.73
234.723	21919.75
234.795	21884.75
234.867	21849.46
234.939	21832.64
235.012	21800.4
235.084	21770.7
235.156	21750.79
235.228	21710.74
235.3	21674.44
235.372	21657.43
235.444	21640.65
235.516	21583.97
235.588	21557.65
235.66	21513.69
235.732	21472.62
235.804	21503.19
235.876	21477.83
235.948	21470.6
236.02	21438.75
236.092	21402.69
236.164	21367.32
236.236	21323.55
236.308	21278.49
236.38	21250
236.452	21207.64
236.524	21178
236.596	21145.56
236.668	21113.65
236.74	21083.1
236.812	21058.42
236.884	21024.68
236.956	20986.7
237.028	20942.32
237.1	20891.33
237.172	20876.72
237.244	20860.1
237.316	20779.8
237.388	20732.13
237.46	20678.15
237.532	20665.14
237.604	20638.39
237.675	20628.9
237.747	20595.84
237.819	20565.33
237.891	20522.2
237.963	20464.32
238.035	20428.08
238.107	20357.33
238.178	20346.59
238.25	20313.62
238.322	20300.08
238.394	20226.68
238.466	20185.77
238.538	20163.99
238.609	20136.71
238.681	20073.48
238.753	20025.48
238.825	19990.45
238.897	19958.06
238.968	19943.32
239.04	19889.53
239.112	19867.03
239.184	19808.62
239.255	19763.37
239.327	19731.85
239.399	19699.52
239.471	19692.19
239.542	19652.39
239.614	19631.38
239.686	19558.71
239.758	19532.73
239.829	19485.02
239.901	19481.65
239.973	19450.9
240.044	19416.93
240.116	19387.53
240.188	19353.9
240.259	19319.15
240.331	19277.61
240.403	19249.42
240.474	19190.97
240.546	19140.22
240.618	19083.36
240.689	19038.25
240.761	19011.85
240.833	18989.34
240.904	18946.07
240.976	18889.64
241.048	18860.19
241.119	18836.58
241.191	18807.18
241.262	18786.37
241.334	18734.22
241.405	18687.67
241.477	18643.1
241.549	18597.75
241.62	18557.37
241.692	18530.86
241.763	18501.66
241.835	18454.14
241.906	18414.48
241.978	18358
242.049	18339.4
242.121	18316.71
242.192	18299.16
242.264	18248.56
242.335	18190.49
242.407	18158.83
242.478	18127.32
242.55	18099.17
242.621	18040.96
242.693	18000.62
242.764	17946.5
242.836	17908.39
242.907	17880.15
242.979	17851.04
243.05	17814.36
243.122	17783.14
243.193	17748.82
243.264	17687.62
243.336	17652.54
243.407	17629.64
243.479	17621.16
243.55	17593.98
243.622	17554.75
243.693	17512.15
243.764	17486.61
243.836	17439.72
243.907	17401.69
243.978	17366.56
244.05	17327.24
244.121	17282.85
244.192	17254.85
244.264	17208.87
244.335	17174.27
244.407	17112.87
244.478	17077.69
244.549	17043.66
244.62	16990.31
244.692	16944.53
244.763	16925.39
244.834	16887.56
244.906	16844.38
244.977	16810.31
245.048	16781.49
245.119	16744.81
245.191	16703.31
245.262	16644.51
245.333	16628.85
245.405	16596.27
245.476	16569.57
245.547	16542.96
245.618	16519.73
245.689	16492.07
245.761	16472.16
245.832	16439.1
245.903	16416.74
245.974	16385.17
246.045	16353.94
246.117	16347
246.188	16303.33
246.259	16255.13
246.33	16217.34
246.401	16175.51
246.473	16126.54
246.544	16086.39
246.615	16060.6
246.686	16017.66
246.757	16007.25
246.828	15959.77
246.899	15937.69
246.97	15892.39
247.042	15847.71
247.113	15821.24
247.184	15817.82
247.255	15774.49
247.326	15741.52
247.397	15712.02
247.468	15681.32
247.539	15646.33
247.61	15589.06
247.681	15572.29
247.752	15558.31
247.823	15516.09
247.894	15486.54
247.965	15448.27
248.037	15416.74
248.108	15366.42
248.179	15342.18
248.25	15312.15
248.321	15294.79
248.392	15254.16
248.463	15239.6
248.534	15208.7
248.605	15188.7
248.675	15136.16
248.746	15113.99
248.817	15097.46
248.888	15074.22
248.959	15026.69
249.03	15008.38
249.101	14987.7
249.172	14954.63
249.243	14899.82
249.314	14900.21
249.385	14880.88
249.456	14865.69
249.527	14840.48
249.598	14824.33
249.669	14797.63
249.739	14774.83
249.81	14747.93
249.881	14706.09
249.952	14683.14
250.023	14657.02
250.094	14614.11
250.165	14576.13
250.235	14539.49
250.306	14509.17
250.377	14473.65
250.448	14454.7
250.519	14400.76
250.59	14391.65
250.66	14358.19
250.731	14355.64
250.802	14319.2
250.873	14294.03
250.944	14269.4
251.014	14221.73
251.085	14224.62
251.156	14207.22
251.227	14192.08
251.297	14183.79
251.368	14175.21
251.439	14161.18
251.51	14137.94
251.58	14102.75
251.651	14072.58
251.722	14061.92
251.792	14012.51
251.863	13979.06
251.934	13965.7
252.005	13981.23
252.075	13949.02
252.146	13940.3
252.217	13921.35
252.287	13906.51
252.358	13881.97
252.429	13872.57
252.499	13850.25
252.57	13821.42
252.641	13804.5
252.711	13778.08
252.782	13734.41
252.852	13734.17
252.923	13697.39
252.994	13677.53
253.064	13667.84
253.135	13638.29
253.205	13612.83
253.276	13614.57
253.347	13613.7
253.417	13586.13
253.488	13550.16
253.558	13523.84
253.629	13494.82
253.699	13479.35
253.77	13466.04
253.841	13436.06
253.911	13425.02
253.982	13406.22
254.052	13396.1
254.123	13382.89
254.193	13355.94
254.264	13377.58
254.334	13339.79
254.405	13306.43
254.475	13270.95
254.546	13243.67
254.616	13239.23
254.687	13214.79
254.757	13197.77
254.827	13169.96
254.898	13153.52
254.968	13133.27
255.039	13099.92
255.109	13091.58
255.18	13062.7
255.25	13013.1
255.321	12998.44
255.391	12954.38
255.461	12956.36
255.532	12908.87
255.602	12882.55
255.673	12847.65
255.743	12810.97
255.813	12761.12
255.884	12759.92
255.954	12755.19
256.024	12751.48
256.095	12732.97
256.165	12695.32
256.235	12679.51
256.306	12652.13
256.376	12641.62
256.446	12630.25
256.517	12620.41
256.587	12614.24
256.657	12598.53
256.728	12588.69
256.798	12573.03
256.868	12547.58
256.938	12514.03
257.009	12499.76
257.079	12477.25
257.149	12482.93
257.219	12444.27
257.29	12435.21
257.36	12390.33
257.43	12378.57
257.5	12334.8
257.571	12307.42
257.641	12307.81
257.711	12265.05
257.781	12248.86
257.852	12236.81
257.922	12193.91
257.992	12179.88
258.062	12151.87
258.132	12138.81
258.202	12115.58
258.273	12097.16
258.343	12096.54
258.413	12072.39
258.483	12051.61
258.553	12022.16
258.623	11991.17
258.693	11969.67
258.764	11973.86
258.834	11970.97
258.904	11949.81
258.974	11924.94
259.044	11897.61
259.114	11878.28
259.184	11871.82
259.254	11853.89
259.324	11803.28
259.394	11795.09
259.464	11787.71
259.535	11763.33
259.605	11736.91
259.675	11710.89
259.745	11697.68
259.815	11664.66
259.885	11642.59
259.955	11657.96
260.025	11634.16
260.095	11617.82
260.165	11608.9
260.235	11599.16
260.305	11570.49
260.375	11543.49
260.445	11554.19
260.515	11564.75
260.585	11563.4
260.655	11550.53
260.725	11547.11
260.795	11544.12
260.865	11548.22
260.934	11520.26
261.004	11513.03
261.074	11497.66
261.144	11499.1
261.214	11490.81
261.284	11474.91
261.354	11473.56
261.424	11437.22
261.494	11441.99
261.564	11424.25
261.634	11419.63
261.703	11379.77
261.773	11370.61
261.843	11358.52
261.913	11330.03
