Data from 20250703_urea_0.1M_MAYP1162681_15-31-05-474.txt Node
Date: Thu Jul 03 15:31:05 BST 2025
User: adleo
Spectrometer: MAYP116268
Trigger mode: 0
Integration Time (sec): 1.000000E0
Scans to average: 1
Electric dark correction enabled: true
Nonlinearity correction enabled: true
Boxcar width: 10
XAxis mode: Wavelengths
Number of Pixels in Spectrum: 2068
>>>>>Begin Spectral Data<<<<<
179.565	1284.31
179.642	1345.38
179.718	1389.91
179.795	1434.79
179.871	1469.62
179.948	1487.24
180.024	1508.72
180.101	1531.92
180.177	1548.63
180.254	1573.35
180.33	1598.67
180.407	1658.22
180.483	1759.61
180.56	1857.54
180.636	1945.99
180.712	1932.15
180.789	1942.65
180.865	1952.83
180.942	1962.48
181.018	1972.79
181.095	1987.92
181.171	1992.91
181.248	1992.53
181.324	2008.18
181.4	2015.32
181.477	2026.97
181.553	2043.47
181.63	2064.77
181.706	2084.52
181.782	2093.22
181.859	2092.69
181.935	2096.21
182.011	2091.89
182.088	2108.87
182.164	2130.28
182.24	2144.88
182.317	2152.54
182.393	2152.59
182.469	2169.05
182.546	2180.61
182.622	2184.51
182.698	2179.46
182.775	2191.55
182.851	2209.34
182.927	2202.68
183.003	2194.55
183.08	2187.98
183.156	2194.26
183.232	2189.65
183.308	2175.09
183.385	2184.98
183.461	2202.63
183.537	2204.3
183.613	2217.76
183.69	2206.68
183.766	2192.68
183.842	2200.15
183.918	2206.53
183.995	2219.61
184.071	2222.52
184.147	2218.8
184.223	2207.63
184.299	2221.14
184.375	2213.72
184.452	2219.77
184.528	2270.83
184.604	2282.96
184.68	2294.33
184.756	2304.28
184.832	2311.28
184.908	2316.65
184.985	2312.99
185.061	2295.29
185.137	2305.85
185.213	2292.39
185.289	2293.44
185.365	2285.73
185.441	2283.59
185.517	2300.25
185.593	2296.16
185.669	2293.3
185.745	2304.44
185.822	2321.28
185.898	2311.05
185.974	2319.61
186.05	2308.09
186.126	2274.16
186.202	2270.02
186.278	2267.5
186.354	2258.07
186.43	2266.59
186.506	2265.83
186.582	2268.5
186.658	2276.87
186.734	2255.93
186.81	2260.4
186.886	2267.97
186.962	2283.39
187.038	2280.67
187.114	2269.29
187.19	2275.77
187.266	2265.97
187.341	2265.35
187.417	2258.54
187.493	2260.02
187.569	2263.63
187.645	2255.74
187.721	2241.55
187.797	2247.69
187.873	2252.59
187.949	2245.32
188.025	2233.6
188.101	2233.89
188.176	2236.17
188.252	2232.08
188.328	2237.98
188.404	2236.98
188.48	2229.46
188.556	2221.09
188.632	2220.14
188.707	2220.23
188.783	2218.28
188.859	2214.95
188.935	2203.77
189.011	2209.9
189.086	2201.39
189.162	2192.39
189.238	2192.68
189.314	2191.73
189.39	2183.69
189.465	2173.46
189.541	2187.26
189.617	2174.7
189.693	2173.75
189.768	2178.41
189.844	2203.31
189.92	2195.51
189.996	2205.21
190.071	2215.3
190.147	2212.87
190.223	2222.92
190.298	2214.82
190.374	2202.41
190.45	2215.11
190.526	2225.15
190.601	2217.68
190.677	2222.48
190.753	2251.29
190.828	2257.38
190.904	2274.23
190.98	2291.74
191.055	2306.59
191.131	2298.12
191.207	2321.25
191.282	2329.48
191.358	2318.72
191.433	2304.06
191.509	2319.23
191.585	2316.14
191.66	2320.66
191.736	2331.51
191.811	2323.14
191.887	2342.37
191.963	2365.83
192.038	2372.88
192.114	2372.59
192.189	2379.92
192.265	2373.92
192.34	2352.02
192.416	2348.64
192.491	2341.07
192.567	2345.74
192.642	2345.4
192.718	2350.3
192.793	2337.07
192.869	2335.55
192.944	2337.79
193.02	2346.88
193.095	2347.97
193.171	2354.21
193.246	2352.83
193.322	2347.35
193.397	2347.26
193.473	2329.26
193.548	2312.08
193.624	2315.84
193.699	2315.74
193.775	2335.08
193.85	2337.12
193.925	2345.21
194.001	2344.69
194.076	2339.88
194.152	2327.36
194.227	2320.55
194.302	2307.76
194.378	2311.33
194.453	2304.29
194.529	2316.99
194.604	2299.05
194.679	2295.38
194.755	2275.93
194.83	2286.31
194.905	2282.69
194.981	2289.88
195.056	2282.93
195.131	2287.59
195.207	2288.02
195.282	2277.32
195.357	2256.18
195.433	2271.74
195.508	2258.6
195.583	2265.88
195.659	2279.54
195.734	2286.78
195.809	2287.3
195.884	2298.62
195.96	2299.62
196.035	2317.04
196.11	2313.61
196.185	2330.75
196.261	2333.51
196.336	2364.68
196.411	2349.3
196.486	2355.35
196.561	2352.25
196.637	2365.2
196.712	2383.62
196.787	2385.24
196.862	2399.42
196.937	2409.94
197.013	2414.99
197.088	2427.22
197.163	2451.7
197.238	2471.33
197.313	2469.14
197.388	2483.19
197.464	2512.57
197.539	2523.33
197.614	2516.53
197.689	2529.29
197.764	2542.72
197.839	2564.01
197.914	2558.91
197.989	2585.34
198.065	2600.44
198.14	2653.58
198.215	2677.59
198.29	2690.36
198.365	2702.6
198.44	2717.32
198.515	2746.72
198.59	2765.64
198.665	2793.61
198.74	2801.33
198.815	2801.14
198.89	2826.77
198.965	2860.38
199.04	2859.43
199.115	2877.82
199.19	2927.29
199.265	2931.67
199.34	2942.16
199.415	2979.31
199.49	3001.62
199.565	3009.72
199.64	3035.51
199.715	3031.69
199.79	3043.18
199.865	3047.9
199.94	3047.9
200.015	3079.76
200.09	3085.72
200.165	3091.3
200.24	3099.93
200.315	3142.79
200.39	3157.82
200.464	3165.21
200.539	3167.26
200.614	3183.71
200.689	3211.14
200.764	3212.38
200.839	3233.55
200.914	3242.04
200.989	3230.63
201.063	3249.71
201.138	3234.41
201.213	3232.36
201.288	3211.85
201.363	3218.29
201.438	3221.73
201.512	3238.46
201.587	3220.48
201.662	3221.57
201.737	3238.08
201.812	3243.52
201.886	3208.53
201.961	3222.65
202.036	3210.11
202.111	3203.58
202.186	3173.31
202.26	3152.84
202.335	3133.42
202.41	3126.22
202.485	3109.44
202.559	3091.94
202.634	3062.13
202.709	3074.76
202.784	3061.27
202.858	3065.37
202.933	3049.01
203.008	3049.06
203.082	3034.13
203.157	3043.15
203.232	3009.12
203.306	2994.52
203.381	2968.53
203.456	2954.27
203.53	2940.24
203.605	2932.9
203.68	2926.27
203.754	2935.28
203.829	2933.99
203.904	2930.41
203.978	2940.33
204.053	2962.13
204.127	2969.61
204.202	2993.4
204.277	3001.18
204.351	3023.74
204.426	3046.92
204.5	3071.58
204.575	3065.95
204.65	3113.39
204.724	3145.81
204.799	3193.39
204.873	3232.15
204.948	3279.2
205.022	3312.64
205.097	3355.39
205.171	3426.27
205.246	3488.36
205.32	3547.87
205.395	3610.82
205.469	3666.67
205.544	3735.49
205.618	3791.01
205.693	3879.13
205.767	3943.5
205.842	4049.22
205.916	4126.43
205.991	4203.9
206.065	4298.13
206.14	4408.81
206.214	4501.77
206.289	4587.47
206.363	4704.21
206.438	4807.6
206.512	4924.79
206.586	5060.11
206.661	5184.58
206.735	5273.68
206.81	5400.02
206.884	5538.34
206.958	5651.81
207.033	5801.01
207.107	5944.1
207.181	6109.89
207.256	6239.9
207.33	6401.63
207.405	6555.2
207.479	6722.02
207.553	6881.08
207.628	7010.9
207.702	7172.46
207.776	7315.62
207.851	7473.83
207.925	7649.72
207.999	7807.09
208.073	7974.36
208.148	8144.25
208.222	8292.57
208.296	8503.55
208.371	8684.09
208.445	8873.87
208.519	9077.21
208.593	9263.07
208.668	9433.53
208.742	9615.09
208.816	9796.34
208.89	9988.32
208.965	10167.97
209.039	10353.1
209.113	10549.32
209.187	10751.29
209.261	10931.38
209.336	11135.68
209.41	11335.7
209.484	11512.71
209.558	11720.08
209.632	11914.93
209.707	12111.77
209.781	12317.81
209.855	12510.37
209.929	12710.41
210.003	12888.09
210.077	13065.77
210.151	13292.56
210.226	13508.03
210.3	13710.63
210.374	13905.57
210.448	14078.09
210.522	14260.06
210.596	14443.48
210.67	14626.13
210.744	14844.24
210.818	15041.68
210.892	15233.62
210.966	15410.19
211.041	15596.44
211.115	15758.39
211.189	15936.59
211.263	16106.83
211.337	16279.52
211.411	16458.67
211.485	16609.48
211.559	16780.29
211.633	16939.49
211.707	17067.68
211.781	17238.38
211.855	17353.47
211.929	17497.38
212.003	17631.45
212.077	17790.01
212.151	17950.2
212.225	18108.51
212.299	18240.84
212.373	18365.99
212.447	18497.94
212.52	18651.09
212.594	18786.17
212.668	18934.4
212.742	19062.01
212.816	19189.33
212.89	19303.16
212.964	19420.65
213.038	19553.12
213.112	19692.3
213.186	19825.36
213.26	19912.24
213.333	19978.03
213.407	20109.64
213.481	20224.91
213.555	20350.5
213.629	20441.63
213.703	20530.31
213.777	20636
213.85	20732.54
213.924	20885.7
213.998	20999.55
214.072	21100.91
214.146	21187.9
214.219	21295.97
214.293	21384.79
214.367	21491.94
214.441	21613.84
214.515	21704.03
214.588	21777.68
214.662	21835.62
214.736	21920.84
214.81	22027.7
214.883	22122.47
214.957	22191.06
215.031	22269.2
215.105	22338.23
215.178	22409
215.252	22490.71
215.326	22543.4
215.4	22598.02
215.473	22624.83
215.547	22674.54
215.621	22736.49
215.694	22823.14
215.768	22856.6
215.842	22916.33
215.915	22967.49
215.989	23003.61
216.063	23048.79
216.136	23110.7
216.21	23167.94
216.284	23235.06
216.357	23303.59
216.431	23363.62
216.504	23439.38
216.578	23526.67
216.652	23593.12
216.725	23653.83
216.799	23713.1
216.873	23762.29
216.946	23821.56
217.02	23865.49
217.093	23918.02
217.167	23945.8
217.24	23967.21
217.314	24021.61
217.387	24059.96
217.461	24093.38
217.535	24153.92
217.608	24192.94
217.682	24239.78
217.755	24291.77
217.829	24317.53
217.902	24347.83
217.976	24389.6
218.049	24419.03
218.123	24444.79
218.196	24488.35
218.27	24529.51
218.343	24560.62
218.417	24606.21
218.49	24643.17
218.563	24699.71
218.637	24736.13
218.71	24798.23
218.784	24863.32
218.857	24908.96
218.931	24960.49
219.004	24992.76
219.077	25016.7
219.151	25049.65
219.224	25069.92
219.298	25108.61
219.371	25160.3
219.444	25178.63
219.518	25211.73
219.591	25240.83
219.665	25297.78
219.738	25326.01
219.811	25334.31
219.885	25365.68
219.958	25397.34
220.031	25417.32
220.105	25442.8
220.178	25468.67
220.251	25473.73
220.325	25492.32
220.398	25515.92
220.471	25537.44
220.544	25584.06
220.618	25600.76
220.691	25626
220.764	25644.73
220.838	25660.37
220.911	25671.66
220.984	25711.77
221.057	25722.24
221.131	25730.83
221.204	25711.23
221.277	25743.52
221.35	25799.37
221.424	25801.74
221.497	25811.05
221.57	25837.89
221.643	25853.48
221.716	25864.58
221.79	25875.59
221.863	25879.45
221.936	25885
222.009	25893.3
222.082	25890.89
222.155	25901.02
222.229	25933.08
222.302	25957.5
222.375	25962.86
222.448	25968.6
222.521	25974.88
222.594	25977.2
222.667	25974.69
222.74	25984.49
222.814	25980.48
222.887	25973.67
222.96	25997.08
223.033	26002.92
223.106	26000.08
223.179	26004.61
223.252	26014.46
223.325	26016.25
223.398	26021.08
223.471	26015.28
223.544	26008.62
223.617	26005.92
223.69	25995.98
223.763	25967.69
223.837	25949.3
223.91	25950.99
223.983	25925.07
224.056	25899.05
224.129	25899.24
224.202	25911.36
224.275	25893.16
224.348	25866.13
224.42	25841.36
224.493	25804.53
224.566	25793.09
224.639	25790.05
224.712	25766.11
224.785	25739.47
224.858	25721.08
224.931	25692.89
225.004	25668.76
225.077	25651.86
225.15	25610.99
225.223	25600.56
225.296	25612.53
225.369	25583.86
225.442	25554.57
225.514	25544.38
225.587	25529.13
225.66	25501.38
225.733	25477.88
225.806	25467.21
225.879	25447.86
225.952	25408.44
226.025	25395.16
226.097	25382.52
226.17	25353.51
226.243	25314.91
226.316	25286
226.389	25260.86
226.461	25241.17
226.534	25229.16
226.607	25200.73
226.68	25202.42
226.753	25180.71
226.825	25127.19
226.898	25122.41
226.971	25101.28
227.044	25073.58
227.117	25061.95
227.189	25051.96
227.262	25037.77
227.335	25019.63
227.407	24997.63
227.48	24982.33
227.553	24960.14
227.626	24927.28
227.698	24901.56
227.771	24879.61
227.844	24850.18
227.916	24839.81
227.989	24808.01
228.062	24773.08
228.134	24766.57
228.207	24740.42
228.28	24696.47
228.352	24678.96
228.425	24655.65
228.498	24640.99
228.57	24608.81
228.643	24587.1
228.716	24552.7
228.788	24507.31
228.861	24462.88
228.934	24447.92
229.006	24419.65
229.079	24391.14
229.151	24359.06
229.224	24319.03
229.296	24310.68
229.369	24317.87
229.442	24305.42
229.514	24269.2
229.587	24254.58
229.659	24213.53
229.732	24186.04
229.804	24194.67
229.877	24180.25
229.949	24154.88
230.022	24149.04
230.094	24126.57
230.167	24095.02
230.239	24061.79
230.312	24036.08
230.384	24038.16
230.457	24016.64
230.529	24003.86
230.602	23983.41
230.674	23962.58
230.747	23950.52
230.819	23937.16
230.892	23887.43
230.964	23853.72
231.037	23842.05
231.109	23818.75
231.181	23807.23
231.254	23775.97
231.326	23736.62
231.399	23710.57
231.471	23671.22
231.544	23600.38
231.616	23581.91
231.688	23560.4
231.761	23524.91
231.833	23490.05
231.905	23426.87
231.978	23389.69
232.05	23353.24
232.122	23321.6
232.195	23281.53
232.267	23253.42
232.339	23201.34
232.412	23180.61
232.484	23136.19
232.556	23091.21
232.629	23070.76
232.701	23029.58
232.773	22993.37
232.846	22946.75
232.918	22910.97
232.99	22877.56
233.062	22862.42
233.135	22834.21
233.207	22790.09
233.279	22766.9
233.351	22744.87
233.424	22717.06
233.496	22672.8
233.568	22655.25
233.64	22604.67
233.713	22569.53
233.785	22535.49
233.857	22502.47
233.929	22444.91
234.001	22433.05
234.074	22415.6
234.146	22355.72
234.218	22326.5
234.29	22289.92
234.362	22252.75
234.434	22202.71
234.507	22165.93
234.579	22116.52
234.651	22071.4
234.723	22036.16
234.795	21997.21
234.867	21964.33
234.939	21950.02
235.012	21909.29
235.084	21867.01
235.156	21840.31
235.228	21801.5
235.3	21764.72
235.372	21725.78
235.444	21702.88
235.516	21628.7
235.588	21590.09
235.66	21566.13
235.732	21518.03
235.804	21540.15
235.876	21509.55
235.948	21489.79
236.02	21449.97
236.092	21418.65
236.164	21379.27
236.236	21333.91
236.308	21297.09
236.38	21253.81
236.452	21205.85
236.524	21177.75
236.596	21157.8
236.668	21123.58
236.74	21084.93
236.812	21050.13
236.884	21029.31
236.956	20990.94
237.028	20963.18
237.1	20909.59
237.172	20878.07
237.244	20867.71
237.316	20788.71
237.388	20742.25
237.46	20683.89
237.532	20657.67
237.604	20601.62
237.675	20581.86
237.747	20557.04
237.819	20509.53
237.891	20475.69
237.963	20418.78
238.035	20372.66
238.107	20294.49
238.178	20270.54
238.25	20231.84
238.322	20211.26
238.394	20141.77
238.466	20092.95
238.538	20055.31
238.609	20023.32
238.681	19960.91
238.753	19899.22
238.825	19860.28
238.897	19827.46
238.968	19810.36
239.04	19763.95
239.112	19756.43
239.184	19699.33
239.255	19657.74
239.327	19619.52
239.399	19572.3
239.471	19543.96
239.542	19515.53
239.614	19491.72
239.686	19425.65
239.758	19397.51
239.829	19341.32
239.901	19326.09
239.973	19295.06
240.044	19250.14
240.116	19214.2
240.188	19178.68
240.259	19140.22
240.331	19086.01
240.403	19055.02
240.474	18999.08
240.546	18944.24
240.618	18878.7
240.689	18843.47
240.761	18801.5
240.833	18786.61
240.904	18751.28
240.976	18707.14
241.048	18666.08
241.119	18643.29
241.191	18614.91
241.262	18590.81
241.334	18557.22
241.405	18514.77
241.477	18464.6
241.549	18432.51
241.62	18389.91
241.692	18361.76
241.763	18328.9
241.835	18302.25
241.906	18267.17
241.978	18216.81
242.049	18197.05
242.121	18177.29
242.192	18152.81
242.264	18098.26
242.335	18033.54
242.407	18003.9
242.478	17966.36
242.55	17936.14
242.621	17882.6
242.693	17831.57
242.764	17784.97
242.836	17742.56
242.907	17708.39
242.979	17687.57
243.05	17657.02
243.122	17628.87
243.193	17592.2
243.264	17533.84
243.336	17496.34
243.407	17461.36
243.479	17439.96
243.55	17413.31
243.622	17382.66
243.693	17338.51
243.764	17323.67
243.836	17278.61
243.907	17231.14
243.978	17192.1
244.05	17157.83
244.121	17103.95
244.192	17091.28
244.264	17041.88
244.335	17003.42
244.407	16958.65
244.478	16918.21
244.549	16878.74
244.62	16828.04
244.692	16784.57
244.763	16761.92
244.834	16720.13
244.906	16678.3
244.977	16654.1
245.048	16625.62
245.119	16577.28
245.191	16530.82
245.262	16471.15
245.333	16460.21
245.405	16434.42
245.476	16408.3
245.547	16373.5
245.618	16345.5
245.689	16307.52
245.761	16279.81
245.832	16238.84
245.903	16206.79
245.974	16185.77
246.045	16146.93
246.117	16135.36
246.188	16096.46
246.259	16052.21
246.33	16016.6
246.401	15977.75
246.473	15926.61
246.544	15888.87
246.615	15866.6
246.686	15831.85
246.757	15821.97
246.828	15778.06
246.899	15758.63
246.97	15710.34
247.042	15668.31
247.113	15645.75
247.184	15638.33
247.255	15605.21
247.326	15575.76
247.397	15539.37
247.468	15502.88
247.539	15473.91
247.61	15418.77
247.681	15389.51
247.752	15376.74
247.823	15333.36
247.894	15310.65
247.965	15270.69
248.037	15233.48
248.108	15187.01
248.179	15160.98
248.25	15133.75
248.321	15104.44
248.392	15060.72
248.463	15056.96
248.534	15023.22
248.605	15002.06
248.675	14959.5
248.746	14929.27
248.817	14913.99
248.888	14892.83
248.959	14843.76
249.03	14822.65
249.101	14800.81
249.172	14772.95
249.243	14717.42
249.314	14708.16
249.385	14679.24
249.456	14660.34
249.527	14629.97
249.598	14606.74
249.669	14572.61
249.739	14531.97
249.81	14512.98
249.881	14469.55
249.952	14437.73
250.023	14407.51
250.094	14366.58
250.165	14322.28
250.235	14296.01
250.306	14266.03
250.377	14223.12
250.448	14202.11
250.519	14155.92
250.59	14148.93
250.66	14116.3
250.731	14111.67
250.802	14078.51
250.873	14048.86
250.944	14018.34
251.014	13978.19
251.085	13977.85
251.156	13955.44
251.227	13952.74
251.297	13947.53
251.368	13930.18
251.439	13913.25
251.51	13911.13
251.58	13879.51
251.651	13862.64
251.722	13846.34
251.792	13797.66
251.863	13775.48
251.934	13770.03
252.005	13770.27
252.075	13737.06
252.146	13726.74
252.217	13715.13
252.287	13710.31
252.358	13684.27
252.429	13685.82
252.499	13662.92
252.57	13635.63
252.641	13631.92
252.711	13604.4
252.782	13554.74
252.852	13574.03
252.923	13555.18
252.994	13529.48
253.064	13521.91
253.135	13481.66
253.205	13453.9
253.276	13452.06
253.347	13444.74
253.417	13406.89
253.488	13378.02
253.558	13356.66
253.629	13329.81
253.699	13300.79
253.77	13281.89
253.841	13262.95
253.911	13244
253.982	13219.61
254.052	13209.34
254.123	13180.42
254.193	13157.28
254.264	13177.72
254.334	13130.67
254.405	13092.68
254.475	13056
254.546	13028.86
254.616	13023.85
254.687	13005
254.757	12986.29
254.827	12964.21
254.898	12945.94
254.968	12928.69
255.039	12896.39
255.109	12889.98
255.18	12857.15
255.25	12805.86
255.321	12781.42
255.391	12740.64
255.461	12747.34
255.532	12696.82
255.602	12672.86
255.673	12624.8
255.743	12591.01
255.813	12546.8
255.884	12532.63
255.954	12526.99
256.024	12526.7
256.095	12503.9
256.165	12470.45
256.235	12456.61
256.306	12429.04
256.376	12418.44
256.446	12401.85
256.517	12389.13
256.587	12367.68
256.657	12356.25
256.728	12345.36
256.798	12339.53
256.868	12315.86
256.938	12285.35
257.009	12279.51
257.079	12267.46
257.149	12281.97
257.219	12236.61
257.29	12220.42
257.36	12180.12
257.43	12163.68
257.5	12121.26
257.571	12102.08
257.641	12090.66
257.711	12061.88
257.781	12048.09
257.852	12038.36
257.922	12001.63
257.992	11981.09
258.062	11961.14
258.132	11953.67
258.202	11931.64
258.273	11905.76
258.343	11908.45
258.413	11877.46
258.483	11854.47
258.553	11821.16
258.623	11792.05
258.693	11781.3
258.764	11778.94
258.834	11783.28
258.904	11764.09
258.974	11735.37
259.044	11709.1
259.114	11693.1
259.184	11677.68
259.254	11651.65
259.324	11614.39
259.394	11600.32
259.464	11600.61
259.535	11587.3
259.605	11559.59
259.675	11529.76
259.745	11515.01
259.815	11479.78
259.885	11455.05
259.955	11466.96
260.025	11448.21
260.095	11431.05
260.165	11418.57
260.235	11414.09
260.305	11386.33
260.375	11355.05
260.445	11360.21
260.515	11365.89
260.585	11365.36
260.655	11343.43
260.725	11341.94
260.795	11326.42
260.865	11330.42
260.934	11303.58
261.004	11288.78
261.074	11264.25
261.144	11268.73
261.214	11263.04
261.284	11241.02
261.354	11240.83
261.424	11213.07
261.494	11211.23
261.564	11193.89
261.634	11188.58
261.703	11152.01
261.773	11138.27
