Data from 20250703_urea_0.1M_MAYP1162681_00-51-04-775.txt Node
Date: Fri Jul 04 00:51:04 BST 2025
User: adleo
Spectrometer: MAYP116268
Trigger mode: 0
Integration Time (sec): 1.000000E0
Scans to average: 1
Electric dark correction enabled: true
Nonlinearity correction enabled: true
Boxcar width: 10
XAxis mode: Wavelengths
Number of Pixels in Spectrum: 2068
>>>>>Begin Spectral Data<<<<<
179.565	1348.5
179.642	1410.63
179.718	1456.97
179.795	1502.27
179.871	1541.45
179.948	1559.51
180.024	1583.38
180.101	1609.59
180.177	1626.73
180.254	1653.54
180.33	1677.23
180.407	1742.68
180.483	1848.1
180.56	1949.74
180.636	2044.28
180.712	2025.96
180.789	2035.19
180.865	2047.36
180.942	2055.59
181.018	2066.76
181.095	2083.13
181.171	2090.74
181.248	2091.93
181.324	2110.11
181.4	2117.48
181.477	2127.43
181.553	2143.5
181.63	2164.62
181.706	2182.23
181.782	2189.55
181.859	2185.84
181.935	2192.41
182.011	2188.27
182.088	2205.4
182.164	2225.44
182.24	2239.09
182.317	2252.89
182.393	2254.98
182.469	2270.44
182.546	2288.33
182.622	2292.57
182.698	2283.14
182.775	2294.61
182.851	2309.32
182.927	2300.99
183.003	2297.37
183.08	2292.47
183.156	2301.32
183.232	2301.56
183.308	2289.28
183.385	2299.66
183.461	2322.55
183.537	2324.17
183.613	2337.3
183.69	2330.92
183.766	2319.74
183.842	2331.83
183.918	2338.16
183.995	2354.1
184.071	2357.62
184.147	2349.91
184.223	2338.16
184.299	2349.06
184.375	2339.26
184.452	2348.55
184.528	2403.01
184.604	2415.53
184.68	2425.76
184.756	2432.47
184.832	2433.43
184.908	2439.09
184.985	2435.76
185.061	2415.72
185.137	2427.24
185.213	2415.63
185.289	2416.25
185.365	2408.44
185.441	2403.87
185.517	2417.87
185.593	2411.78
185.669	2409.4
185.745	2421.49
185.822	2437.62
185.898	2430.48
185.974	2438.57
186.05	2428.81
186.126	2393.38
186.202	2381.77
186.278	2378.48
186.354	2370.06
186.43	2376.87
186.506	2373.35
186.582	2375.63
186.658	2383.91
186.734	2358.5
186.81	2361.3
186.886	2363.21
186.962	2377.44
187.038	2375.44
187.114	2365.44
187.19	2374.91
187.266	2365.16
187.341	2365.39
187.417	2359.54
187.493	2361.68
187.569	2364.68
187.645	2358.4
187.721	2343.35
187.797	2354.39
187.873	2360.11
187.949	2356.01
188.025	2351.35
188.101	2355.15
188.176	2360.29
188.252	2354.92
188.328	2366
188.404	2365.48
188.48	2362.15
188.556	2354.43
188.632	2352.01
188.707	2353.77
188.783	2347.24
188.859	2340.25
188.935	2329.45
189.011	2337.25
189.086	2329.87
189.162	2322.5
189.238	2319.26
189.314	2317.74
189.39	2310.27
189.465	2301.22
189.541	2317.88
189.617	2299.89
189.693	2294.47
189.768	2297.18
189.844	2325.23
189.92	2316.1
189.996	2325.47
190.071	2332.52
190.147	2330.23
190.223	2340.75
190.298	2334.09
190.374	2320.67
190.45	2334.04
190.526	2342.89
190.601	2336.13
190.677	2338.61
190.753	2366.56
190.828	2371.65
190.904	2388.22
190.98	2405.12
191.055	2417.88
191.131	2409.55
191.207	2432.63
191.282	2445.29
191.358	2436.68
191.433	2420.29
191.509	2433.76
191.585	2431.14
191.66	2436.95
191.736	2447.04
191.811	2438.57
191.887	2456.43
191.963	2484.04
192.038	2490.04
192.114	2492.94
192.189	2496.8
192.265	2491.99
192.34	2467.7
192.416	2465.8
192.491	2461.7
192.567	2464.94
192.642	2468.99
192.718	2469.7
192.793	2455.66
192.869	2449.14
192.944	2453.09
193.02	2461.56
193.095	2468.42
193.171	2475.13
193.246	2470.61
193.322	2466.23
193.397	2466.18
193.473	2451.51
193.548	2428.23
193.624	2435.99
193.699	2433.94
193.775	2453.28
193.85	2455.37
193.925	2464.66
194.001	2462.9
194.076	2455.66
194.152	2446.28
194.227	2437.99
194.302	2427.19
194.378	2432.56
194.453	2427.57
194.529	2441.09
194.604	2424.14
194.679	2411.67
194.755	2389.11
194.83	2403.78
194.905	2401.21
194.981	2407.88
195.056	2400.26
195.131	2409.87
195.207	2407.68
195.282	2395.97
195.357	2373.31
195.433	2387.39
195.508	2375.59
195.583	2385.3
195.659	2398.73
195.734	2404.35
195.809	2399.49
195.884	2407.1
195.96	2410.63
196.035	2430.1
196.11	2422.67
196.185	2438.52
196.261	2448.33
196.336	2482.8
196.411	2468.98
196.486	2477.17
196.561	2473.46
196.637	2481.74
196.712	2501.37
196.787	2506.56
196.862	2523.03
196.937	2534.79
197.013	2541.7
197.088	2555.65
197.163	2579.37
197.238	2597.44
197.313	2597.2
197.388	2615.87
197.464	2649.17
197.539	2659.51
197.614	2653.27
197.689	2667.18
197.764	2683.23
197.839	2703.57
197.914	2695.38
197.989	2720.15
198.065	2735.49
198.14	2789.13
198.215	2817.67
198.29	2825.92
198.365	2837.31
198.44	2848.51
198.515	2880.11
198.59	2898.41
198.665	2926.2
198.74	2935.93
198.815	2936.93
198.89	2960.95
198.965	2994.14
199.04	2990.52
199.115	3006.11
199.19	3050.58
199.265	3054.49
199.34	3063.31
199.415	3102.91
199.49	3126.84
199.565	3136.14
199.64	3160.84
199.715	3159.36
199.79	3167.9
199.865	3173.48
199.94	3174.86
200.015	3209.26
200.09	3213.46
200.165	3221.33
200.24	3230.49
200.315	3275.23
200.39	3293.36
200.464	3302.71
200.539	3304
200.614	3326.37
200.689	3350.27
200.764	3360.35
200.839	3382.43
200.914	3389.87
200.989	3377.5
201.063	3397.16
201.138	3380.14
201.213	3379.9
201.288	3355.67
201.363	3361.77
201.438	3367.74
201.512	3385.15
201.587	3368.11
201.662	3374.27
201.737	3388.53
201.812	3397.41
201.886	3361.69
201.961	3375.73
202.036	3361.89
202.111	3361.85
202.186	3327.79
202.26	3310.85
202.335	3285.08
202.41	3276.55
202.485	3260.47
202.559	3240.48
202.634	3211.38
202.709	3224.4
202.784	3207.51
202.858	3215.05
202.933	3197.64
203.008	3192.24
203.082	3173.74
203.157	3176.41
203.232	3135.17
203.306	3118.9
203.381	3090.13
203.456	3068.9
203.53	3046.66
203.605	3033.88
203.68	3011.32
203.754	3015.37
203.829	3012.08
203.904	3006.4
203.978	3008.5
204.053	3025.96
204.127	3024.67
204.202	3039.07
204.277	3038.02
204.351	3048.42
204.426	3060.78
204.5	3073.56
204.575	3060.59
204.65	3096.9
204.724	3117.05
204.799	3152.8
204.873	3174.99
204.948	3205.39
205.022	3226.18
205.097	3252.2
205.171	3302.54
205.246	3355.48
205.32	3391.21
205.395	3433.37
205.469	3465
205.544	3515.77
205.618	3546.38
205.693	3607.65
205.767	3648.96
205.842	3725.26
205.916	3773.64
205.991	3820.9
206.065	3885.6
206.14	3964.69
206.214	4023.38
206.289	4082.39
206.363	4164.05
206.438	4240.97
206.512	4319.18
206.586	4420.2
206.661	4505.01
206.735	4560.55
206.81	4643.92
206.884	4751.61
206.958	4823.12
207.033	4931.68
207.107	5030.82
207.181	5159.28
207.256	5247.81
207.33	5364.73
207.405	5482.39
207.479	5603.13
207.553	5708.25
207.628	5791.9
207.702	5909.2
207.776	6008.98
207.851	6117.36
207.925	6244.46
207.999	6351.74
208.073	6458.21
208.148	6574.22
208.222	6676.99
208.296	6827.36
208.371	6955.42
208.445	7080.88
208.519	7226.01
208.593	7355.13
208.668	7471.66
208.742	7590.31
208.816	7715.52
208.89	7846.86
208.965	7956.99
209.039	8088.5
209.113	8230.15
209.187	8384.73
209.261	8502.45
209.336	8645.7
209.41	8788.63
209.484	8921.69
209.558	9069.86
209.632	9218.41
209.707	9352.46
209.781	9499.88
209.855	9648.64
209.929	9786.11
210.003	9914.8
210.077	10042.97
210.151	10217.41
210.226	10378.27
210.3	10537.66
210.374	10683
210.448	10812.81
210.522	10947.87
210.596	11080.53
210.67	11216.85
210.744	11383.54
210.818	11540.2
210.892	11687.97
210.966	11808.84
211.041	11939.03
211.115	12057.35
211.189	12192.65
211.263	12323.46
211.337	12448.4
211.411	12569.73
211.485	12685.8
211.559	12813.01
211.633	12931.88
211.707	13017.44
211.781	13135.88
211.855	13205.01
211.929	13310.15
212.003	13400.15
212.077	13516.71
212.151	13640.93
212.225	13756.24
212.299	13844.8
212.373	13934.6
212.447	14032.27
212.52	14162.57
212.594	14271.27
212.668	14386.53
212.742	14472.38
212.816	14573.42
212.89	14669.39
212.964	14767.87
213.038	14875.08
213.112	14984.26
213.186	15098.84
213.26	15166.18
213.333	15219.44
213.407	15314.88
213.481	15417.31
213.555	15526.16
213.629	15602.65
213.703	15672.54
213.777	15766.77
213.85	15850.54
213.924	15972.63
213.998	16058.47
214.072	16136.12
214.146	16200.51
214.219	16273.29
214.293	16355.18
214.367	16427.38
214.441	16515.82
214.515	16585.17
214.588	16642.48
214.662	16681.9
214.736	16739.06
214.81	16821.96
214.883	16899.94
214.957	16967.27
215.031	17020.67
215.105	17063.66
215.178	17132.97
215.252	17200.73
215.326	17232.87
215.4	17270.9
215.473	17292.73
215.547	17343.48
215.621	17399.23
215.694	17465.35
215.768	17506.03
215.842	17557.88
215.915	17618.7
215.989	17660.87
216.063	17713.45
216.136	17763.66
216.21	17828.1
216.284	17887.66
216.357	17959.51
216.431	18011.46
216.504	18075.17
216.578	18147.94
216.652	18222.06
216.725	18266.88
216.799	18334.05
216.873	18389.95
216.946	18454.72
217.02	18507.2
217.093	18551.05
217.167	18578.86
217.24	18623.1
217.314	18669.12
217.387	18701.02
217.461	18742.75
217.535	18800.97
217.608	18836.87
217.682	18894.7
217.755	18953.15
217.829	18999.17
217.902	19042.11
217.976	19088.95
218.049	19129.09
218.123	19176.32
218.196	19226.53
218.27	19272.36
218.343	19295.44
218.417	19350.43
218.49	19393.85
218.563	19451.05
218.637	19507.58
218.71	19579.19
218.784	19629.06
218.857	19688.58
218.931	19754.07
219.004	19793.49
219.077	19839.27
219.151	19890.88
219.224	19922.79
219.298	19960.18
219.371	20016.95
219.444	20047.17
219.518	20090.83
219.591	20138.54
219.665	20205.96
219.738	20245.19
219.811	20279.55
219.885	20335.4
219.958	20381.91
220.031	20418.63
220.105	20475.84
220.178	20526.64
220.251	20557.38
220.325	20597.29
220.398	20645.1
220.471	20693.34
220.544	20741.19
220.618	20773.29
220.691	20816.71
220.764	20864.62
220.838	20913.88
220.911	20940.14
220.984	20996.19
221.057	21043.91
221.131	21091.48
221.204	21094.37
221.277	21157.36
221.35	21227.44
221.424	21264.26
221.497	21298.44
221.57	21337.67
221.643	21362.97
221.716	21385.34
221.79	21411.7
221.863	21447.95
221.936	21471.52
222.009	21487.76
222.082	21524.34
222.155	21546.32
222.229	21586.47
222.302	21619.88
222.375	21646.58
222.448	21691.94
222.521	21721.1
222.594	21739.56
222.667	21734.93
222.74	21765.25
222.814	21777.78
222.887	21786.7
222.96	21814.47
223.033	21855.06
223.106	21879.83
223.179	21907.69
223.252	21932.13
223.325	21948.28
223.398	21967.95
223.471	21987.37
223.544	22017.07
223.617	22040.4
223.69	22070.19
223.763	22073.66
223.837	22085.56
223.91	22104.75
223.983	22092.7
224.056	22091.69
224.129	22114.68
224.202	22151.65
224.275	22164.71
224.348	22160.71
224.42	22168.67
224.493	22164.09
224.566	22157.63
224.639	22165.24
224.712	22155.94
224.785	22157.34
224.858	22169.87
224.931	22169.58
225.004	22171.13
225.077	22169
225.15	22145.67
225.223	22151.02
225.296	22188.72
225.369	22182.65
225.442	22179.18
225.514	22186.41
225.587	22202.41
225.66	22213.07
225.733	22222.76
225.806	22228.49
225.879	22240.06
225.952	22232.16
226.025	22242.19
226.097	22266.82
226.17	22269.95
226.243	22267.5
226.316	22277.62
226.389	22287.74
226.461	22297.87
226.534	22301.58
226.607	22305.53
226.68	22335.13
226.753	22330.41
226.825	22303.21
226.898	22321.29
226.971	22314.25
227.044	22321.2
227.117	22315.41
227.189	22313.82
227.262	22317.05
227.335	22322.88
227.407	22308.23
227.48	22320.04
227.553	22316.81
227.626	22303.41
227.698	22312.13
227.771	22314.4
227.844	22299.98
227.916	22287.35
227.989	22268.99
228.062	22270.96
228.134	22290.68
228.207	22281.67
228.28	22271.59
228.352	22265.08
228.425	22247.49
228.498	22260.36
228.57	22238.42
228.643	22251.92
228.716	22250.86
228.788	22240.11
228.861	22218.42
228.934	22230.66
229.006	22213.65
229.079	22209.36
229.151	22194.94
229.224	22171.56
229.296	22163.66
229.369	22188.39
229.442	22195.33
229.514	22176.82
229.587	22176.1
229.659	22150.35
229.732	22140.81
229.804	22140.09
229.877	22160.72
229.949	22172.05
230.022	22177.98
230.094	22169.54
230.167	22156.72
230.239	22132.52
230.312	22111.07
230.384	22126.98
230.457	22123.75
230.529	22126.69
230.602	22119.41
230.674	22108.27
230.747	22107.74
230.819	22115.84
230.892	22066.62
230.964	22061.75
231.037	22058.09
231.109	22043.1
231.181	22038.09
231.254	22017.26
231.326	22007.04
231.399	21984.14
231.471	21962.64
231.544	21916.7
231.616	21919.31
231.688	21907.69
231.761	21889.28
231.833	21879.73
231.905	21842.47
231.978	21831.24
232.05	21808.49
232.122	21787.28
232.195	21766.65
232.267	21765.11
232.339	21739.56
232.412	21746.11
232.484	21719.46
232.556	21701.72
232.629	21710.2
232.701	21708.61
232.773	21691.89
232.846	21670.44
232.918	21643.3
232.99	21627.64
233.062	21631.59
233.135	21612.65
233.207	21579.63
233.279	21569.07
233.351	21550.47
233.424	21538.9
233.496	21497.4
233.568	21500.58
233.64	21476
233.713	21464.53
233.785	21434.07
233.857	21408.52
233.929	21363.94
234.001	21362.83
234.074	21352.61
234.146	21303.59
234.218	21260.45
234.29	21240.26
234.362	21202.62
234.434	21163.43
234.507	21129.12
234.579	21080.87
234.651	21053.74
234.723	21039.28
234.795	21005.21
234.867	20975.9
234.939	20947.13
235.012	20934.7
235.084	20904.28
235.156	20885.05
235.228	20842.98
235.3	20812.33
235.372	20792.47
235.444	20791.12
235.516	20741
235.588	20726.92
235.66	20702.49
235.732	20669.19
235.804	20695.5
235.876	20691.12
235.948	20684.13
236.02	20650.2
236.092	20623.02
236.164	20597.82
236.236	20550.49
236.308	20518.88
236.38	20496.8
236.452	20461.38
236.524	20424.42
236.596	20411.89
236.668	20389.28
236.74	20370.39
236.812	20344.95
236.884	20325.09
236.956	20287.41
237.028	20248.8
237.1	20198.97
237.172	20177.91
237.244	20175.6
237.316	20107.65
237.388	20062.64
237.46	20023.02
237.532	20009.38
237.604	19977.63
237.675	19959.17
237.747	19944.62
237.819	19916.52
237.891	19886.16
237.963	19850.6
238.035	19811.18
238.107	19738.65
238.178	19718.36
238.25	19679.81
238.322	19674.22
238.394	19623.28
238.466	19584.01
238.538	19564.92
238.609	19543.24
238.681	19493.99
238.753	19444.88
238.825	19415.82
238.897	19386.47
238.968	19379.87
239.04	19337.03
239.112	19329.9
239.184	19288.89
239.255	19254.19
239.327	19223.69
239.399	19183.59
239.471	19157.24
239.542	19138.54
239.614	19124.9
239.686	19066.2
239.758	19047.27
239.829	18993.82
239.901	18970.64
239.973	18932.77
240.044	18905.01
240.116	18872.1
240.188	18833.35
240.259	18802.32
240.331	18764.44
240.403	18745.07
240.474	18685.84
240.546	18646.23
240.618	18594.23
240.689	18549.8
240.761	18512.55
240.833	18502.96
240.904	18467.45
240.976	18431.16
241.048	18392.08
241.119	18359.26
241.191	18334.49
241.262	18313.48
241.334	18274.54
241.405	18241.63
241.477	18211.55
241.549	18164.57
241.62	18132.18
241.692	18112.14
241.763	18084.52
241.835	18044.09
241.906	18005.11
241.978	17960.19
242.049	17937.73
242.121	17916.39
242.192	17892.1
242.264	17842.31
242.335	17780.87
242.407	17761.83
242.478	17732.87
242.55	17707.09
242.621	17671.91
242.693	17630.99
242.764	17585.26
242.836	17554.61
242.907	17521.45
242.979	17492.49
243.05	17466.32
243.122	17436.44
243.193	17395.19
243.264	17339.72
243.336	17298.66
243.407	17273.69
243.479	17250.99
243.55	17210.85
243.622	17169.6
243.693	17140.78
243.764	17127.19
243.836	17080.92
243.907	17034.27
243.978	16997.3
244.05	16962.07
244.121	16907.71
244.192	16885.25
244.264	16831.37
244.335	16789.97
244.407	16736.76
244.478	16700.56
244.549	16666.15
244.62	16617.47
244.692	16583.16
244.763	16557.08
244.834	16521.08
244.906	16474.38
244.977	16449.8
245.048	16442.43
245.119	16406.9
245.191	16366.8
245.262	16304.87
245.333	16292.87
245.405	16265.4
245.476	16236.82
245.547	16207.03
245.618	16184.86
245.689	16150.64
245.761	16128.76
245.832	16103.16
245.903	16088.51
245.974	16065.86
246.045	16026.04
246.117	16013.22
246.188	15971.53
246.259	15926.56
246.33	15894.07
246.401	15862.45
246.473	15815.8
246.544	15767.5
246.615	15747.69
246.686	15701.9
246.757	15694.09
246.828	15648.4
246.899	15639.14
246.97	15591.96
247.042	15549.11
247.113	15520.52
247.184	15504.62
247.255	15463.6
247.326	15434.29
247.397	15392.84
247.468	15356.54
247.539	15327.38
247.61	15280.48
247.681	15263.32
247.752	15254.59
247.823	15213.14
247.894	15181.66
247.965	15140.59
248.037	15113.07
248.108	15060.58
248.179	15034.26
248.25	15002.2
248.321	14982.34
248.392	14928.79
248.463	14919.97
248.534	14888.64
248.605	14876.78
248.675	14847.71
248.746	14829.83
248.817	14802.02
248.888	14781.14
248.959	14736.89
249.03	14717.9
249.101	14689.36
249.172	14659.72
249.243	14609.1
249.314	14605.92
249.385	14578.83
249.456	14557.28
249.527	14524.5
249.598	14507
249.669	14483.19
249.739	14455.57
249.81	14431.66
249.881	14392.08
249.952	14364.61
250.023	14341.61
250.094	14291.29
250.165	14247.47
250.235	14219.03
250.306	14197.53
250.377	14157.32
250.448	14132.06
250.519	14082.07
250.59	14068.33
250.66	14031.22
250.731	14022.2
250.802	13995.25
250.873	13976.98
250.944	13954.52
251.014	13922.56
251.085	13928.01
251.156	13903.76
251.227	13894.21
251.297	13887.46
251.368	13880.86
251.439	13872.04
251.51	13853.72
251.58	13818.14
251.651	13794.47
251.722	13781.75
251.792	13734.79
251.863	13707.9
251.934	13704.18
252.005	13709.82
252.075	13683.31
252.146	13674.15
252.217	13659.5
252.287	13641.85
252.358	13617.27
252.429	13625.03
252.499	13595.96
252.57	13570.84
252.641	13558.36
252.711	13533.44
252.782	13484.99
252.852	13482
252.923	13450.86
252.994	13437.31
253.064	13424.78
253.135	13387.18
253.205	13353.1
253.276	13345.48
253.347	13340.85
253.417	13301.71
253.488	13271.24
253.558	13246.7
253.629	13229.98
253.699	13214.16
253.77	13195.22
253.841	13170.2
253.911	13143.49
253.982	13127.2
254.052	13101.07
254.123	13088.1
254.193	13068.53
254.264	13087.33
254.334	13053.3
254.405	13020.52
254.475	12978.72
254.546	12960.55
254.616	12953.75
254.687	12937.41
254.757	12925.12
254.827	12905.36
254.898	12897.55
254.968	12878.84
255.039	12845.39
255.109	12829.91
255.18	12791.98
255.25	12749.17
255.321	12733.74
255.391	12690.26
255.461	12690.17
255.532	12644.76
255.602	12612.56
255.673	12563.58
255.743	12533.16
255.813	12480.96
255.884	12473.05
255.954	12460.71
256.024	12461.1
256.095	12443.65
256.165	12415.06
256.235	12404.17
256.306	12377.8
256.376	12368.35
256.446	12352.98
256.517	12342.18
256.587	12328.39
256.657	12316.73
256.728	12301.49
256.798	12282.74
256.868	12263.66
256.938	12228.9
257.009	12218.3
257.079	12203.64
257.149	12213.57
257.219	12171.54
257.29	12166.48
257.36	12125.7
257.43	12119.1
257.5	12076.1
257.571	12048.96
257.641	12035.61
257.711	11998.54
257.781	11984.71
257.852	11964.7
257.922	11928.94
257.992	11909.71
258.062	11880.69
258.132	11863.82
258.202	11841.74
258.273	11825.98
258.343	11824.78
258.413	11801.55
258.483	11790.22
258.553	11765.06
258.623	11737.44
258.693	11725.73
258.764	11721.77
258.834	11722.35
258.904	11705.87
258.974	11674.54
259.044	11655.5
259.114	11646.73
259.184	11633.24
259.254	11615.74
259.324	11580.41
259.394	11572.07
259.464	11569.18
259.535	11552.07
259.605	11532.36
259.675	11508.31
259.745	11489.75
259.815	11458.52
259.885	11432.83
259.955	11441.03
260.025	11416.16
260.095	11396.79
260.165	11383.39
260.235	11388.64
260.305	11361.89
260.375	11330.37
260.445	11341.84
260.515	11343.53
260.585	11337.75
260.655	11320.35
260.725	11309.55
260.795	11296.25
260.865	11292.35
260.934	11266.95
261.004	11258.47
261.074	11240.06
261.144	11240.2
261.214	11234.61
261.284	11221.5
261.354	11223.38
261.424	11193.45
261.494	11198.13
261.564	11187.72
261.634	11182.61
261.703	11143.71
261.773	11133.74
261.843	11125.02
261.913	11106.27
261.983	11071.24
