Data from 20250703_urea_0.1M_MAYP1162681_04-01-04-865.txt Node
Date: Fri Jul 04 04:01:04 BST 2025
User: adleo
Spectrometer: MAYP116268
Trigger mode: 0
Integration Time (sec): 1.000000E0
Scans to average: 1
Electric dark correction enabled: true
Nonlinearity correction enabled: true
Boxcar width: 10
XAxis mode: Wavelengths
Number of Pixels in Spectrum: 2068
>>>>>Begin Spectral Data<<<<<
179.565	1281.81
179.642	1344.97
179.718	1394.35
179.795	1432.75
179.871	1467.09
179.948	1485.16
180.024	1509.04
180.101	1535.64
180.177	1552.03
180.254	1574.02
180.33	1596.58
180.407	1656.03
180.483	1755.66
180.56	1853.21
180.636	1943.46
180.712	1929.72
180.789	1941.89
180.865	1955.11
180.942	1965.28
181.018	1980.74
181.095	1996.96
181.171	2003.14
181.248	2004.33
181.324	2018.41
181.4	2026.92
181.477	2038.19
181.553	2053.5
181.63	2070.91
181.706	2087.46
181.782	2095.02
181.859	2095.88
181.935	2102.63
182.011	2098.16
182.088	2117.24
182.164	2134.75
182.24	2148.35
182.317	2157.05
182.393	2155.29
182.469	2170.56
182.546	2184.46
182.622	2184.93
182.698	2177.6
182.775	2190.74
182.851	2204.15
182.927	2197.35
183.003	2193.74
183.08	2189.03
183.156	2196.73
183.232	2195.02
183.308	2183.41
183.385	2194.78
183.461	2216.19
183.537	2215.86
183.613	2230.37
183.69	2218.81
183.766	2207
183.842	2214.62
183.918	2220.95
183.995	2234.22
184.071	2239.93
184.147	2231.8
184.223	2222.28
184.299	2237.51
184.375	2224.48
184.452	2231.38
184.528	2283.78
184.604	2294.15
184.68	2303.1
184.756	2312.57
184.832	2318.8
184.908	2320.61
184.985	2316.47
185.061	2298.29
185.137	2309.15
185.213	2298.96
185.289	2302.58
185.365	2297.77
185.441	2297.15
185.517	2313.15
185.593	2309.3
185.669	2304.34
185.745	2316.48
185.822	2330.7
185.898	2320.85
185.974	2330.55
186.05	2321.89
186.126	2286.62
186.202	2280.43
186.278	2279.39
186.354	2268.54
186.43	2274.25
186.506	2275.58
186.582	2277.39
186.658	2285.33
186.734	2263.54
186.81	2263.54
186.886	2268.02
186.962	2280.2
187.038	2277.1
187.114	2267.87
187.19	2274.63
187.266	2264.16
187.341	2264.4
187.417	2257.5
187.493	2257.93
187.569	2260.73
187.645	2256.26
187.721	2242.65
187.797	2251.73
187.873	2256.78
187.949	2254.35
188.025	2246.83
188.101	2249.5
188.176	2254.25
188.252	2246.88
188.328	2256.15
188.404	2258.01
188.48	2249.49
188.556	2241.97
188.632	2239.02
188.707	2239.55
188.783	2237.07
188.859	2230.32
188.935	2220.61
189.011	2231.75
189.086	2225.75
189.162	2217.61
189.238	2214.62
189.314	2214.09
189.39	2209
189.465	2199.34
189.541	2210.81
189.617	2198.63
189.693	2189.88
189.768	2194.49
189.844	2219.06
189.92	2210.73
189.996	2219.44
190.071	2231.53
190.147	2232.38
190.223	2243.23
190.298	2238.62
190.374	2225.91
190.45	2241.89
190.526	2253.08
190.601	2243.75
190.677	2243.32
190.753	2273.32
190.828	2278.22
190.904	2293.17
190.98	2307.88
191.055	2320.3
191.131	2314.59
191.207	2335.1
191.282	2349.27
191.358	2336.38
191.433	2324.81
191.509	2337.13
191.585	2334.41
191.66	2337.65
191.736	2345.08
191.811	2337.03
191.887	2353.93
191.963	2376.73
192.038	2378.78
192.114	2374.4
192.189	2380.68
192.265	2381.68
192.34	2356.25
192.416	2354.59
192.491	2349.78
192.567	2351.54
192.642	2355.63
192.718	2354.25
192.793	2342.83
192.869	2334.93
192.944	2338.02
193.02	2345.4
193.095	2351.83
193.171	2360.06
193.246	2359.87
193.322	2357.35
193.397	2356.78
193.473	2338.73
193.548	2322.02
193.624	2328.16
193.699	2330.5
193.775	2349.54
193.85	2348.69
193.925	2357.83
194.001	2356.54
194.076	2348.45
194.152	2336.93
194.227	2325.93
194.302	2319.18
194.378	2321.18
194.453	2320.89
194.529	2335.41
194.604	2319.51
194.679	2311.61
194.755	2289.01
194.83	2300.91
194.905	2300.06
194.981	2309.62
195.056	2304.77
195.131	2310.34
195.207	2308.2
195.282	2296.96
195.357	2273.25
195.433	2288.34
195.508	2274.73
195.583	2280.44
195.659	2296.24
195.734	2304.86
195.809	2306.19
195.884	2316.66
195.96	2318.76
196.035	2333.51
196.11	2327.56
196.185	2342.36
196.261	2345.69
196.336	2377.77
196.411	2362.58
196.486	2367.06
196.561	2362.06
196.637	2370
196.712	2386.39
196.787	2392.48
196.862	2410.52
196.937	2423.23
197.013	2428.66
197.088	2441.03
197.163	2464.75
197.238	2479.8
197.313	2480.52
197.388	2495.66
197.464	2525.76
197.539	2537.14
197.614	2530.29
197.689	2545.24
197.764	2560.39
197.839	2584.1
197.914	2580.1
197.989	2606.59
198.065	2620.35
198.14	2671.2
198.215	2702.5
198.29	2716.99
198.365	2728.43
198.44	2739.57
198.515	2770.93
198.59	2788.42
198.665	2816.05
198.74	2825.06
198.815	2828.4
198.89	2850.12
198.965	2882.64
199.04	2877.11
199.115	2897.07
199.19	2942.06
199.265	2945.92
199.34	2954.35
199.415	2987.88
199.49	3009.47
199.565	3018.24
199.64	3041.46
199.715	3040.31
199.79	3045.37
199.865	3052.09
199.94	3054.67
200.015	3083.56
200.09	3084.61
200.165	3091.19
200.24	3102.21
200.315	3143.64
200.39	3161.62
200.464	3168.63
200.539	3168.78
200.614	3185.42
200.689	3205.74
200.764	3214.04
200.839	3233.4
200.914	3242.65
200.989	3232.96
201.063	3247.99
201.138	3231.07
201.213	3233.74
201.288	3214.66
201.363	3218.43
201.438	3216.23
201.512	3231.11
201.587	3214.65
201.662	3222.62
201.737	3236.17
201.812	3241.56
201.886	3207.04
201.961	3215.73
202.036	3204.14
202.111	3204.1
202.186	3175.59
202.26	3157.56
202.335	3135.57
202.41	3129.13
202.485	3110.91
202.559	3092.27
202.634	3066.04
202.709	3075.29
202.784	3058.21
202.858	3059.12
202.933	3043.48
203.008	3040.48
203.082	3023.41
203.157	3028.8
203.232	2987.19
203.306	2969.87
203.381	2942.02
203.456	2925.81
203.53	2907.01
203.605	2893.19
203.68	2875.45
203.754	2879.22
203.829	2875.02
203.904	2866.35
203.978	2868.35
204.053	2883.7
204.127	2882.22
204.202	2894.33
204.277	2892.61
204.351	2902.44
204.426	2913.17
204.5	2923.89
204.575	2909.78
204.65	2943.46
204.724	2956.68
204.799	2986.93
204.873	3006.25
204.948	3031.48
205.022	3048.16
205.097	3070.83
205.171	3117.04
205.246	3159.08
205.32	3191.46
205.395	3226.24
205.469	3252.57
205.544	3296.3
205.618	3323.03
205.693	3381.35
205.767	3414.19
205.842	3483.57
205.916	3529.59
205.991	3570.71
206.065	3629.36
206.14	3701.44
206.214	3754.26
206.289	3810.8
206.363	3889.49
206.438	3959.91
206.512	4032.95
206.586	4121.47
206.661	4199.06
206.735	4247.91
206.81	4324.43
206.884	4416.92
206.958	4480.82
207.033	4584.39
207.107	4675.8
207.181	4789.17
207.256	4869.28
207.33	4979.21
207.405	5082.25
207.479	5188.5
207.553	5285.3
207.628	5364.15
207.702	5465.98
207.776	5552.79
207.851	5643.68
207.925	5757.12
207.999	5844.7
208.073	5944.17
208.148	6047.19
208.222	6135.24
208.296	6269.61
208.371	6385.14
208.445	6495.36
208.519	6630.06
208.593	6743.82
208.668	6842.45
208.742	6953.65
208.816	7058.36
208.89	7177.65
208.965	7285.24
209.039	7406.29
209.113	7534.25
209.187	7655.59
209.261	7766.5
209.336	7899.12
209.41	8036.33
209.484	8146.02
209.558	8287.74
209.632	8413.82
209.707	8530.31
209.781	8666.97
209.855	8796.29
209.929	8924.21
210.003	9044.06
210.077	9153.19
210.151	9304.34
210.226	9446.39
210.3	9580.81
210.374	9717.89
210.448	9834.93
210.522	9947.16
210.596	10060.74
210.67	10177.6
210.744	10345.09
210.818	10480.02
210.892	10608.46
210.966	10706.32
211.041	10832.99
211.115	10934.76
211.189	11058.74
211.263	11185.18
211.337	11297.22
211.411	11414.09
211.485	11505.47
211.559	11620.22
211.633	11724.65
211.707	11800.9
211.781	11912.49
211.855	11974.86
211.929	12061.47
212.003	12139.55
212.077	12254.85
212.151	12373.82
212.225	12478.22
212.299	12560.27
212.373	12645.4
212.447	12734.33
212.52	12858.22
212.594	12943.74
212.668	13048
212.742	13132.8
212.816	13215.28
212.89	13298.53
212.964	13394.22
213.038	13494.97
213.112	13604.78
213.186	13713.49
213.26	13777.02
213.333	13816.94
213.407	13912.34
213.481	14002.92
213.555	14095.86
213.629	14162.33
213.703	14225.77
213.777	14309.79
213.85	14367.74
213.924	14483.04
213.998	14557.61
214.072	14633.24
214.146	14705.41
214.219	14781.57
214.293	14849.58
214.367	14926.57
214.441	15010.34
214.515	15068.72
214.588	15115.76
214.662	15146.42
214.736	15196.5
214.81	15282.35
214.883	15357.5
214.957	15413.95
215.031	15471.36
215.105	15516.67
215.178	15569.83
215.252	15624.69
215.326	15666.48
215.4	15716.85
215.473	15733.43
215.547	15789.29
215.621	15836.28
215.694	15899.76
215.768	15930.03
215.842	15974.37
215.915	16021.99
215.989	16051.54
216.063	16094.05
216.136	16152.32
216.21	16207.84
216.284	16274.74
216.357	16330.22
216.431	16384.1
216.504	16448.35
216.578	16536.4
216.652	16598.96
216.725	16656.41
216.799	16716.7
216.873	16765.53
216.946	16824.13
217.02	16874.35
217.093	16921.73
217.167	16951.71
217.24	16990.41
217.314	17037.93
217.387	17091.42
217.461	17138.56
217.535	17207.09
217.608	17255.91
217.682	17302.9
217.755	17368.1
217.829	17402.7
217.902	17449.45
217.976	17502.66
218.049	17538.56
218.123	17561.45
218.196	17621.35
218.27	17660.82
218.343	17694.27
218.417	17756.44
218.49	17801.54
218.563	17859.86
218.637	17900.24
218.71	17969.63
218.784	18020.72
218.857	18079.9
218.931	18130.55
219.004	18185.63
219.077	18235.79
219.151	18282.83
219.224	18338.68
219.298	18384.51
219.371	18441.47
219.444	18472.17
219.518	18520.89
219.591	18572.16
219.665	18646.04
219.738	18689.94
219.811	18727.19
219.885	18780.49
219.958	18823.38
220.031	18869.3
220.105	18925.83
220.178	18977.73
220.251	19011.99
220.325	19056.42
220.398	19107.26
220.471	19155.45
220.544	19204.12
220.618	19232.56
220.691	19279.06
220.764	19305.03
220.838	19353.37
220.911	19387.25
220.984	19462.04
221.057	19507.19
221.131	19556.78
221.204	19566.56
221.277	19628.73
221.35	19698.99
221.424	19735.28
221.497	19769.73
221.57	19807.13
221.643	19847.08
221.716	19894.88
221.79	19927.94
221.863	19962.5
221.936	19990.78
222.009	20016.95
222.082	20048.95
222.155	20079.02
222.229	20128.61
222.302	20176.99
222.375	20199.6
222.448	20245.14
222.521	20258.25
222.594	20278.82
222.667	20294.34
222.74	20331.35
222.814	20351.06
222.887	20378.68
222.96	20417.04
223.033	20454.05
223.106	20479.55
223.179	20505.09
223.252	20521.96
223.325	20552.17
223.398	20575.26
223.471	20603.98
223.544	20640.66
223.617	20671.45
223.69	20703.93
223.763	20703.45
223.837	20728.76
223.91	20752.27
223.983	20756.03
224.056	20772.71
224.129	20804.18
224.202	20837.82
224.275	20852.28
224.348	20860.04
224.42	20861.67
224.493	20859.26
224.566	20867.02
224.639	20885.48
224.712	20892.47
224.785	20907.89
224.858	20920.42
224.931	20932.71
225.004	20935.8
225.077	20943.22
225.15	20924.62
225.223	20929.1
225.296	20968.86
225.369	20956.28
225.442	20962.26
225.514	20980.91
225.587	20996.04
225.66	21011.03
225.733	21022.31
225.806	21041.11
225.879	21048.58
225.952	21041.98
226.025	21062.94
226.097	21090.51
226.17	21103.67
226.243	21096.44
226.316	21099.14
226.389	21100.63
226.461	21116.05
226.534	21140.73
226.607	21148.92
226.68	21178.95
226.753	21186.37
226.825	21172.78
226.898	21205.75
226.971	21213.31
227.044	21219.92
227.117	21220.79
227.189	21218.52
227.262	21231.2
227.335	21242.67
227.407	21241.9
227.48	21263.01
227.553	21269.32
227.626	21267.54
227.698	21271.44
227.771	21268.55
227.844	21266.62
227.916	21282.57
227.989	21266.04
228.062	21251.82
228.134	21274.72
228.207	21273.51
228.28	21277.18
228.352	21273.23
228.425	21259.92
228.498	21265.51
228.57	21256.74
228.643	21268.65
228.716	21266.28
228.788	21258.91
228.861	21243.68
228.934	21260.6
229.006	21257.99
229.079	21257.66
229.151	21245.85
229.224	21231.97
229.296	21252.07
229.369	21281.76
229.442	21297.08
229.514	21297.18
229.587	21310.24
229.659	21284.55
229.732	21287.35
229.804	21295.78
229.877	21326.68
229.949	21341.14
230.022	21353.09
230.094	21344.75
230.167	21339.11
230.239	21327.79
230.312	21322.44
230.384	21340.56
230.457	21327.74
230.529	21324.32
230.602	21321.57
230.674	21322.2
230.747	21330.78
230.819	21331.64
230.892	21285.66
230.964	21261.61
231.037	21257.95
231.109	21246.57
231.181	21254.62
231.254	21234.09
231.326	21219.54
231.399	21197.89
231.471	21180.35
231.544	21147.33
231.616	21153.65
231.688	21158.13
231.761	21147.57
231.833	21142.13
231.905	21099.76
231.978	21096
232.05	21083.04
232.122	21067.66
232.195	21048.48
232.267	21052.15
232.339	21028.1
232.412	21038.07
232.484	21017.3
232.556	21004.19
232.629	21021.16
232.701	21009.54
232.773	21006.74
232.846	20990.02
232.918	20977.54
232.99	20968.86
233.062	20962.45
233.135	20952.24
233.207	20914.88
233.279	20904.76
233.351	20881.24
233.424	20868.23
233.496	20838.4
233.568	20847.41
233.64	20827.6
233.713	20810.64
233.785	20782.44
233.857	20771.36
233.929	20740.76
234.001	20755.89
234.074	20748.03
234.146	20697.96
234.218	20676.85
234.29	20642.83
234.362	20614.15
234.434	20574.87
234.507	20538.39
234.579	20504.85
234.651	20473.43
234.723	20463.35
234.795	20444.75
234.867	20428.9
234.939	20419.69
235.012	20406.29
235.084	20376.9
235.156	20359.26
235.228	20324.51
235.3	20295.31
235.372	20274.73
235.444	20254.82
235.516	20199.93
235.588	20183.79
235.66	20163.69
235.732	20132.22
235.804	20179.84
235.876	20166.3
235.948	20156.51
236.02	20125.58
236.092	20092.71
236.164	20066.69
236.236	20030.11
236.308	20003.22
236.38	19970.21
236.452	19928.96
236.524	19898.36
236.596	19894.31
236.668	19866.79
236.74	19842.94
236.812	19814.07
236.884	19793.01
236.956	19778.46
237.028	19750.7
237.1	19713.64
237.172	19704.44
237.244	19695.04
237.316	19613.59
237.388	19584.34
237.46	19544.2
237.532	19529.55
237.604	19502.71
237.675	19496.4
237.747	19479.72
237.819	19443.92
237.891	19419.44
237.963	19388.35
238.035	19355.68
238.107	19276.12
238.178	19263.11
238.25	19237.81
238.322	19234.97
238.394	19182.82
238.466	19139.36
238.538	19107.02
238.609	19072.85
238.681	19015.56
238.753	18961.87
238.825	18931.42
238.897	18902.84
238.968	18895.85
239.04	18858.6
239.112	18855.28
239.184	18809.74
239.255	18772.44
239.327	18743.53
239.399	18712.49
239.471	18694.23
239.542	18673.55
239.614	18668.83
239.686	18607
239.758	18591.1
239.829	18543.25
239.901	18524.21
239.973	18495.83
240.044	18465.95
240.116	18441.37
240.188	18421.04
240.259	18397.04
240.331	18360.08
240.403	18330.15
240.474	18277.87
240.546	18245.14
240.618	18188.52
240.689	18147.51
240.761	18112.23
240.833	18101.54
240.904	18062.21
240.976	18032.19
241.048	17995.32
241.119	17963.13
241.191	17941.4
241.262	17923.66
241.334	17889.54
241.405	17863.76
241.477	17826.07
241.549	17794.36
241.62	17753.88
241.692	17715.76
241.763	17697.26
241.835	17673.89
241.906	17634.66
241.978	17584.83
242.049	17564.97
242.121	17544.92
242.192	17524.78
242.264	17477.64
242.335	17420.63
242.407	17402.37
242.478	17361.84
242.55	17338.32
242.621	17290.85
242.693	17256.49
242.764	17212.97
242.836	17170.8
242.907	17133.84
242.979	17103.18
243.05	17076.58
243.122	17051.47
243.193	17015.42
243.264	16954.31
243.336	16910.99
243.407	16889.3
243.479	16879.22
243.55	16845.01
243.622	16819.99
243.693	16786.06
243.764	16782.55
243.836	16747.46
243.907	16709.72
243.978	16674.88
244.05	16640.13
244.121	16594.53
244.192	16569.95
244.264	16520.79
244.335	16495.44
244.407	16441.03
244.478	16414.33
244.549	16382.13
244.62	16338.46
244.692	16307.13
244.763	16283.66
244.834	16247.22
244.906	16212.86
244.977	16183.17
245.048	16164.13
245.119	16121.96
245.191	16080.61
245.262	16018.72
245.333	16000.35
245.405	15962.66
245.476	15932.73
245.547	15898.41
245.618	15879.13
245.689	15851.66
245.761	15824.19
245.832	15791.65
245.903	15781.87
245.974	15757.57
246.045	15721.67
246.117	15702.67
246.188	15657.12
246.259	15610.85
246.33	15573.54
246.401	15529.92
246.473	15483.41
246.544	15441.52
246.615	15413.03
246.686	15381.51
246.757	15371.1
246.828	15328.58
246.899	15313.98
246.97	15270.65
247.042	15229.43
247.113	15202.15
247.184	15186.63
247.255	15149.75
247.326	15117.41
247.397	15076.78
247.468	15031.85
247.539	14990.15
247.61	14946.1
247.681	14925.56
247.752	14918.09
247.823	14882.71
247.894	14862.75
247.965	14818.64
248.037	14788.81
248.108	14749.38
248.179	14714.04
248.25	14675.72
248.321	14655.09
248.392	14616.14
248.463	14613.83
248.534	14588.52
248.605	14570.88
248.675	14543.21
248.746	14524.7
248.817	14503.39
248.888	14481.46
248.959	14451.62
249.03	14440.87
249.101	14416.76
249.172	14387.94
249.243	14336.45
249.314	14326.14
249.385	14292.25
249.456	14283.48
249.527	14254.31
249.598	14229.92
249.669	14209.62
249.739	14188.03
249.81	14159.49
249.881	14113.16
249.952	14084.77
250.023	14058.6
250.094	14005.95
250.165	13959.97
250.235	13928.25
250.306	13900.14
250.377	13866.54
250.448	13831.98
250.519	13783.48
250.59	13778.42
250.66	13753.02
250.731	13742.89
250.802	13713.05
250.873	13695.7
250.944	13668.46
251.014	13632.69
251.085	13639.01
251.156	13615.05
251.227	13605.89
251.297	13598.56
251.368	13584.1
251.439	13570.41
251.51	13554.36
251.58	13532.18
251.651	13503.26
251.722	13490.97
251.792	13453.94
251.863	13424.25
251.934	13425.16
252.005	13437.07
252.075	13406.36
252.146	13387.85
252.217	13377.87
252.287	13367.27
252.358	13343.12
252.429	13340.75
252.499	13311.69
252.57	13287.58
252.641	13270.52
252.711	13243.52
252.782	13198.35
252.852	13198.64
252.923	13169.62
252.994	13149.28
253.064	13139.11
253.135	13106.71
253.205	13075.38
253.276	13074.46
253.347	13068.92
253.417	13033.58
253.488	13000.66
253.558	12968.94
253.629	12948.74
253.699	12927.63
253.77	12911.14
253.841	12886.46
253.911	12867.66
253.982	12851.41
254.052	12835.36
254.123	12817.81
254.193	12797.81
254.264	12822.88
254.334	12792.17
254.405	12759.58
254.475	12725.79
254.546	12703.28
254.616	12705.4
254.687	12691.85
254.757	12673.29
254.827	12650.88
254.898	12634.87
254.968	12615.74
255.039	12597.37
255.109	12582.43
255.18	12557.31
255.25	12511.86
255.321	12496.19
255.391	12456.04
255.461	12463.94
255.532	12415.88
255.602	12389.9
255.673	12340.54
255.743	12300.43
255.813	12260.38
255.884	12248.62
255.954	12242.78
256.024	12236.32
256.095	12209.47
256.165	12171.97
256.235	12154.81
256.306	12128.01
256.376	12119
256.446	12098.32
256.517	12078.17
256.587	12066.7
256.657	12047.32
256.728	12031.66
256.798	12017.63
256.868	11992.81
256.938	11958.82
257.009	11959.11
257.079	11947.79
257.149	11966.83
257.219	11927.88
257.29	11914.62
257.36	11879.34
257.43	11868.5
257.5	11827.33
257.571	11802.03
257.641	11795.14
257.711	11763.71
257.781	11756.91
257.852	11743.08
257.922	11701.1
257.992	11683.75
258.062	11655.55
258.132	11646.3
258.202	11623.89
258.273	11599.93
258.343	11604.61
258.413	11579.88
258.483	11548.41
258.553	11518.43
258.623	11484.45
258.693	11475.82
258.764	11471.15
258.834	11469.22
258.904	11446.13
258.974	11421.17
259.044	11400.25
259.114	11383.39
259.184	11363.77
259.254	11339.96
259.324	11302.22
259.394	11296.49
259.464	11293.31
259.535	11282.42
259.605	11249.74
259.675	11228.25
259.745	11215.67
259.815	11179.04
259.885	11147.04
259.955	11160.15
260.025	11129.12
260.095	11106.47
260.165	11093.7
260.235	11092.93
260.305	11063.15
260.375	11037.99
260.445	11052.11
260.515	11055.92
260.585	11052.93
260.655	11041.84
260.725	11041.55
260.795	11035
260.865	11044.11
260.934	11019.53
261.004	11013.17
261.074	11003.72
261.144	11004.5
261.214	11000.01
261.284	10997.07
261.354	11003.39
261.424	10974.52
261.494	10980.4
261.564	10973.75
261.634	10963.72
261.703	10926.71
261.773	10917.22
261.843	10911.97
