Data from 20250703_urea_0.1M_MAYP1162681_20-11-05-112.txt Node
Date: Thu Jul 03 20:11:05 BST 2025
User: adleo
Spectrometer: MAYP116268
Trigger mode: 0
Integration Time (sec): 1.000000E0
Scans to average: 1
Electric dark correction enabled: true
Nonlinearity correction enabled: true
Boxcar width: 10
XAxis mode: Wavelengths
Number of Pixels in Spectrum: 2068
>>>>>Begin Spectral Data<<<<<
179.565	1373.75
179.642	1443.92
179.718	1495.91
179.795	1543.62
179.871	1582.77
179.948	1604.66
180.024	1630.15
180.101	1655.53
180.177	1673.45
180.254	1699.71
180.33	1726
180.407	1793.59
180.483	1901.25
180.56	2005.93
180.636	2101.28
180.712	2088.86
180.789	2100.52
180.865	2117.63
180.942	2126.96
181.018	2136.66
181.095	2153.79
181.171	2159.98
181.248	2158.36
181.324	2176.06
181.4	2183.06
181.477	2195.14
181.553	2207.65
181.63	2230.16
181.706	2246.96
181.782	2256.76
181.859	2255.28
181.935	2262.76
182.011	2259.52
182.088	2278.89
182.164	2300.12
182.24	2317.39
182.317	2329.24
182.393	2325.34
182.469	2340.1
182.546	2354.14
182.622	2364.27
182.698	2360.04
182.775	2373.55
182.851	2390.12
182.927	2380.46
183.003	2377.31
183.08	2370.51
183.156	2380.31
183.232	2373.65
183.308	2362.13
183.385	2372.93
183.461	2395.69
183.537	2395.45
183.613	2407.06
183.69	2397.02
183.766	2383.35
183.842	2394.21
183.918	2396.16
183.995	2411.77
184.071	2414.44
184.147	2405.01
184.223	2391.07
184.299	2406.41
184.375	2393.84
184.452	2400.6
184.528	2452.26
184.604	2463.64
184.68	2476.73
184.756	2488.68
184.832	2496.44
184.908	2502.92
184.985	2500.01
185.061	2479.49
185.137	2489.78
185.213	2480.31
185.289	2480.69
185.365	2471.36
185.441	2463.36
185.517	2475.88
185.593	2472.69
185.669	2467.79
185.745	2484.26
185.822	2499.4
185.898	2487.2
185.974	2497.96
186.05	2487.1
186.126	2452.72
186.202	2443.87
186.278	2440.2
186.354	2428.78
186.43	2438.21
186.506	2437.02
186.582	2436.35
186.658	2445.25
186.734	2422.59
186.81	2424.59
186.886	2428.21
186.962	2446.06
187.038	2445.53
187.114	2438.63
187.19	2446.58
187.266	2438.49
187.341	2438.06
187.417	2436.06
187.493	2437.97
187.569	2439.54
187.645	2435.78
187.721	2424.58
187.797	2431.3
187.873	2436.72
187.949	2431.54
188.025	2421.53
188.101	2422.34
188.176	2428.63
188.252	2422.49
188.328	2430.05
188.404	2429.91
188.48	2426.86
188.556	2420.29
188.632	2419.24
188.707	2422.63
188.783	2417.1
188.859	2411.82
188.935	2399.44
189.011	2405.92
189.086	2398.11
189.162	2389.4
189.238	2387.73
189.314	2383.4
189.39	2378.59
189.465	2366.74
189.541	2385.4
189.617	2369.36
189.693	2367.7
189.768	2370.7
189.844	2398.7
189.92	2391.33
189.996	2402.99
190.071	2413.94
190.147	2412.23
190.223	2422.32
190.298	2415.08
190.374	2401.42
190.45	2414.65
190.526	2425.94
190.601	2418.03
190.677	2420.37
190.753	2450.8
190.828	2455.56
190.904	2472.37
190.98	2487.51
191.055	2501.51
191.131	2490.51
191.207	2514.51
191.282	2520.6
191.358	2512.31
191.433	2496.97
191.509	2512.06
191.585	2506.58
191.66	2506.92
191.736	2513.2
191.811	2506.39
191.887	2521.01
191.963	2550.2
192.038	2555.68
192.114	2553.06
192.189	2563.92
192.265	2559.63
192.34	2536.38
192.416	2533.43
192.491	2530.77
192.567	2534.48
192.642	2535.77
192.718	2533.58
192.793	2517.34
192.869	2516.43
192.944	2517.96
193.02	2522.96
193.095	2527.2
193.171	2534.24
193.246	2534.67
193.322	2531.72
193.397	2528.44
193.473	2514.48
193.548	2492.24
193.624	2495.19
193.699	2496.24
193.775	2509.15
193.85	2509.15
193.925	2520.15
194.001	2518.82
194.076	2509.29
194.152	2501.43
194.227	2492.24
194.302	2483.58
194.378	2488.91
194.453	2483.15
194.529	2497.49
194.604	2482.16
194.679	2473.59
194.755	2452.83
194.83	2467.89
194.905	2467.6
194.981	2476.6
195.056	2468.08
195.131	2475.89
195.207	2476.32
195.282	2464.75
195.357	2444.07
195.433	2461.93
195.508	2446.45
195.583	2454.93
195.659	2468.21
195.734	2471.12
195.809	2473.74
195.884	2482.4
195.96	2484.02
196.035	2502.06
196.11	2496.16
196.185	2511.92
196.261	2515.01
196.336	2546.87
196.411	2530.81
196.486	2534.05
196.561	2531.91
196.637	2542.14
196.712	2560.48
196.787	2566.87
196.862	2585.96
196.937	2597.63
197.013	2605.02
197.088	2617.59
197.163	2639.51
197.238	2660.91
197.313	2663.05
197.388	2678.34
197.464	2715.37
197.539	2725.28
197.614	2719.13
197.689	2732.33
197.764	2747.49
197.839	2771.4
197.914	2766.78
197.989	2787.41
198.065	2804.52
198.14	2856.88
198.215	2888.81
198.29	2901.16
198.365	2915.27
198.44	2923.56
198.515	2954.27
198.59	2971.24
198.665	3002.23
198.74	3016.63
198.815	3018.82
198.89	3045.09
198.965	3077.91
199.04	3068.8
199.115	3089.53
199.19	3137.69
199.265	3140.32
199.34	3152.67
199.415	3192.13
199.49	3216.64
199.565	3232.9
199.64	3260.86
199.715	3258.33
199.79	3262.19
199.865	3266.53
199.94	3264.15
200.015	3299.12
200.09	3301.17
200.165	3309.14
200.24	3317.06
200.315	3361.19
200.39	3377.7
200.464	3382.62
200.539	3383.57
200.614	3399.84
200.689	3422.32
200.764	3425.56
200.839	3444.88
200.914	3451.61
200.989	3437.86
201.063	3449.93
201.138	3430.66
201.213	3429.95
201.288	3408.33
201.363	3413.96
201.438	3419.73
201.512	3434.9
201.587	3417.86
201.662	3427.93
201.737	3441.49
201.812	3448.89
201.886	3410.48
201.961	3422.9
202.036	3410.02
202.111	3406.87
202.186	3378.11
202.26	3364.94
202.335	3344.08
202.41	3339.55
202.485	3324.19
202.559	3304.29
202.634	3279.29
202.709	3292.88
202.784	3273.42
202.858	3275.8
202.933	3258.01
203.008	3255.29
203.082	3243.03
203.157	3246.66
203.232	3202.54
203.306	3187.18
203.381	3161.03
203.456	3144.09
203.53	3123.75
203.605	3113.93
203.68	3099.47
203.754	3104.95
203.829	3101.13
203.904	3094.46
203.978	3096.37
204.053	3114.21
204.127	3119.36
204.202	3137.1
204.277	3136.82
204.351	3151.75
204.426	3169.64
204.5	3191.21
204.575	3179.19
204.65	3217.14
204.724	3239.1
204.799	3281.68
204.873	3312.53
204.948	3346.42
205.022	3370.75
205.097	3401.36
205.171	3457.54
205.246	3514.48
205.32	3561.96
205.395	3609.39
205.469	3650.73
205.544	3714.81
205.618	3755.51
205.693	3827.72
205.767	3877.31
205.842	3963.11
205.916	4027.78
205.991	4088.84
206.065	4162.57
206.14	4256.77
206.214	4331.43
206.289	4407.09
206.363	4503.35
206.438	4594.56
206.512	4691.11
206.586	4802.68
206.661	4911.57
206.735	4989.8
206.81	5089.96
206.884	5210.38
206.958	5299.87
207.033	5429.9
207.107	5546.63
207.181	5691.02
207.256	5801.67
207.33	5942.53
207.405	6080.25
207.479	6218.01
207.553	6347.24
207.628	6457.46
207.702	6597.59
207.776	6715.05
207.851	6847.12
207.925	6995.49
207.999	7117.72
208.073	7252.03
208.148	7396.85
208.222	7517.13
208.296	7688.39
208.371	7845.24
208.445	7997.45
208.519	8176.06
208.593	8329.81
208.668	8464.3
208.742	8621.7
208.816	8769.52
208.89	8928.32
208.965	9072.82
209.039	9227.75
209.113	9395.05
209.187	9566.96
209.261	9718.35
209.336	9887.92
209.41	10061.55
209.484	10218.55
209.558	10397.36
209.632	10555.08
209.707	10714.74
209.781	10889.39
209.855	11052.7
209.929	11223.97
210.003	11380.74
210.077	11523.68
210.151	11720.85
210.226	11914.31
210.3	12085.18
210.374	12262.74
210.448	12415.58
210.522	12566.31
210.596	12725.23
210.67	12880.35
210.744	13075.23
210.818	13245.3
210.892	13417.87
210.966	13553.03
211.041	13709.03
211.115	13840.34
211.189	14012.09
211.263	14170.01
211.337	14322.1
211.411	14472.59
211.485	14600.62
211.559	14750.2
211.633	14898.57
211.707	15002.16
211.781	15145.27
211.855	15237.96
211.929	15356.59
212.003	15462.73
212.077	15604.3
212.151	15746.54
212.225	15879.28
212.299	15998.42
212.373	16115.93
212.447	16225.63
212.52	16373.26
212.594	16498.96
212.668	16632.56
212.742	16731.8
212.816	16845.1
212.89	16948.39
212.964	17066.56
213.038	17181.98
213.112	17301.07
213.186	17425.17
213.26	17515.24
213.333	17574.42
213.407	17689.03
213.481	17793.17
213.555	17914.72
213.629	18007.05
213.703	18097.51
213.777	18199.33
213.85	18272.15
213.924	18405.35
213.998	18509.73
214.072	18604.95
214.146	18682.01
214.219	18781.33
214.293	18874.48
214.367	18968.55
214.441	19070.71
214.515	19150.08
214.588	19209.11
214.662	19260.72
214.736	19312.96
214.81	19403.22
214.883	19491.6
214.957	19555.07
215.031	19619.84
215.105	19683.64
215.178	19748.89
215.252	19818.33
215.326	19866.96
215.4	19924.45
215.473	19941.56
215.547	19995.05
215.621	20058.33
215.694	20130.57
215.768	20168.16
215.842	20212.25
215.915	20268.73
215.989	20308.73
216.063	20360.98
216.136	20430.37
216.21	20489.94
216.284	20572.64
216.357	20636.35
216.431	20695
216.504	20766.67
216.578	20858.48
216.652	20927.69
216.725	20985.04
216.799	21051.99
216.873	21113.25
216.946	21176
217.02	21226.51
217.093	21273.45
217.167	21298.71
217.24	21338.57
217.314	21378.95
217.387	21437.61
217.461	21472.94
217.535	21538.64
217.608	21571.37
217.682	21611.42
217.755	21681.46
217.829	21717.51
217.902	21763.3
217.976	21804.8
218.049	21842.64
218.123	21866.94
218.196	21911.91
218.27	21952.79
218.343	21973.09
218.417	22020.81
218.49	22066.51
218.563	22122.28
218.637	22173.67
218.71	22239.23
218.784	22291.54
218.857	22357.77
218.931	22398.41
219.004	22439.68
219.077	22475.11
219.151	22521.15
219.224	22561.55
219.298	22590.04
219.371	22634.73
219.444	22661.83
219.518	22701.46
219.591	22735.83
219.665	22800.3
219.738	22835.06
219.811	22861.38
219.885	22911.53
219.958	22958.78
220.031	22984.43
220.105	23028.69
220.178	23054.39
220.251	23073.44
220.325	23115.2
220.398	23152.09
220.471	23195.19
220.544	23238.21
220.618	23264.39
220.691	23303.01
220.764	23328.52
220.838	23366.62
220.911	23392.56
220.984	23438.42
221.057	23478.44
221.131	23515.43
221.204	23514.61
221.277	23559.22
221.35	23614.77
221.424	23631.75
221.497	23657.21
221.57	23684.26
221.643	23707.61
221.716	23751.64
221.79	23770.54
221.863	23778.79
221.936	23787.18
222.009	23806.81
222.082	23825.23
222.155	23842.64
222.229	23871.68
222.302	23908.67
222.375	23916.87
222.448	23945.47
222.521	23957.38
222.594	23966.21
222.667	23966.35
222.74	23987.67
222.814	24002.77
222.887	24015.31
222.96	24047.87
223.033	24056.41
223.106	24081.78
223.179	24105.41
223.252	24107.25
223.325	24125.19
223.398	24135.32
223.471	24148.68
223.544	24159.05
223.617	24179.26
223.69	24195.71
223.763	24197.97
223.837	24205.59
223.91	24228.89
223.983	24213.5
224.056	24218.62
224.129	24219.53
224.202	24236.61
224.275	24233.71
224.348	24212.39
224.42	24191.17
224.493	24160.59
224.566	24163.34
224.639	24158.42
224.712	24151.71
224.785	24150.65
224.858	24148.67
224.931	24146.02
225.004	24137.19
225.077	24136.47
225.15	24097.64
225.223	24083.99
225.296	24100.44
225.369	24075.17
225.442	24052.88
225.514	24053.66
225.587	24055.78
225.66	24062
225.733	24059.44
225.806	24060.22
225.879	24065.09
225.952	24060.75
226.025	24074.69
226.097	24084.91
226.17	24083.66
226.243	24051.15
226.316	24040.88
226.389	24027.13
226.461	24027.95
226.534	24033.26
226.607	24011.74
226.68	24030.17
226.753	24029.44
226.825	24000.26
226.898	24009.38
226.971	24006.43
227.044	24002.14
227.117	23983.86
227.189	23974.36
227.262	23973.35
227.335	23961.53
227.407	23939.59
227.48	23933.32
227.553	23919.62
227.626	23889.13
227.698	23872.3
227.771	23863.38
227.844	23837.77
227.916	23828.95
227.989	23792.34
228.062	23764.42
228.134	23777.2
228.207	23757.13
228.28	23729.5
228.352	23708.28
228.425	23693.23
228.498	23684.65
228.57	23651.32
228.643	23650.94
228.716	23633.53
228.788	23615.15
228.861	23604.64
228.934	23603.29
229.006	23589.79
229.079	23568.9
229.151	23548.94
229.224	23514.46
229.296	23496.04
229.369	23509.4
229.442	23500.53
229.514	23476.95
229.587	23477.14
229.659	23433.64
229.732	23421.06
229.804	23423.56
229.877	23436.05
229.949	23422.65
230.022	23425.78
230.094	23414.35
230.167	23394
230.239	23361.94
230.312	23336.77
230.384	23335.37
230.457	23313.76
230.529	23285.75
230.602	23279.09
230.674	23265.5
230.747	23264.43
230.819	23272.97
230.892	23219.74
230.964	23205.22
231.037	23204.26
231.109	23173.83
231.181	23175.86
231.254	23136.95
231.326	23109.65
231.399	23068.04
231.471	23050.44
231.544	23006.32
231.616	23001.21
231.688	22978.21
231.761	22955.69
231.833	22929.56
231.905	22885.39
231.978	22859.55
232.05	22838
232.122	22812.49
232.195	22779.47
232.267	22765.97
232.339	22726.96
232.412	22731.06
232.484	22698.95
232.556	22660.57
232.629	22667.18
232.701	22651.31
232.773	22636.71
232.846	22599.68
232.918	22588.98
232.99	22557.69
233.062	22535.95
233.135	22509.19
233.207	22479.64
233.279	22463.1
233.351	22442.32
233.424	22407.28
233.496	22377
233.568	22364.9
233.64	22319.01
233.713	22294.81
233.785	22264.01
233.857	22237.35
233.929	22182.92
234.001	22171.93
234.074	22167.16
234.146	22114.03
234.218	22076
234.29	22037.68
234.362	22011.6
234.434	21958.09
234.507	21915.33
234.579	21867.28
234.651	21829.58
234.723	21799.55
234.795	21766.29
234.867	21728.4
234.939	21718.33
235.012	21687.53
235.084	21669.69
235.156	21643.23
235.228	21607.66
235.3	21574.5
235.372	21548.52
235.444	21534.83
235.516	21472.65
235.588	21436.88
235.66	21406.71
235.732	21362.32
235.804	21401.65
235.876	21370.76
235.948	21355.24
236.02	21324.35
236.092	21295.09
236.164	21262.46
236.236	21231.28
236.308	21209.73
236.38	21187.42
236.452	21145.63
236.524	21120.42
236.596	21096.66
236.668	21080.8
236.74	21046.34
236.812	21012.99
236.884	20986.73
236.956	20945.9
237.028	20913.76
237.1	20868.17
237.172	20858.53
237.244	20841.9
237.316	20761.65
237.388	20722.18
237.46	20687.09
237.532	20666.03
237.604	20620.83
237.675	20602.13
237.747	20557.45
237.819	20503.33
237.891	20465.55
237.963	20416.44
238.035	20368.68
238.107	20292.35
238.178	20260.54
238.25	20224.78
238.322	20209.94
238.394	20151.87
238.466	20114.03
238.538	20089.55
238.609	20064.06
238.681	20001.55
238.753	19957.12
238.825	19923.63
238.897	19891.63
238.968	19866.81
239.04	19827.29
239.112	19828.11
239.184	19780.12
239.255	19752.26
239.327	19723.44
239.399	19693.13
239.471	19673.52
239.542	19650.72
239.614	19640.89
239.686	19579.45
239.758	19555.98
239.829	19507.02
239.901	19488.32
239.973	19457.92
240.044	19427.41
240.116	19394.88
240.188	19355.08
240.259	19310.74
240.331	19265.93
240.403	19241.4
240.474	19189.64
240.546	19140.39
240.618	19081.5
240.689	19033.65
240.761	18998.23
240.833	18979.25
240.904	18928.94
240.976	18878.87
241.048	18842.92
241.119	18806.24
241.191	18787.16
241.262	18766.3
241.334	18727.79
241.405	18690.97
241.477	18653.1
241.549	18606.64
241.62	18563.17
241.692	18525.2
241.763	18504.43
241.835	18466.55
241.906	18429.45
241.978	18373.93
242.049	18361.69
242.121	18329.4
242.192	18309.36
242.264	18247.38
242.335	18188.54
242.407	18162.23
242.478	18124.01
242.55	18089.75
242.621	18044.93
242.693	17998.86
242.764	17953.23
242.836	17912.79
242.907	17881.57
242.979	17838.82
243.05	17813.09
243.122	17779.11
243.193	17742.1
243.264	17684.94
243.336	17647.02
243.407	17625.57
243.479	17617.77
243.55	17581.24
243.622	17546.49
243.693	17511.84
243.764	17502.06
243.836	17453.77
243.907	17425.52
243.978	17386.63
244.05	17348.61
244.121	17294.82
244.192	17262.53
244.264	17206.1
244.335	17173.14
244.407	17112.03
244.478	17091.69
244.549	17055.45
244.62	17013.81
244.692	16984.89
244.763	16967.39
244.834	16927.73
244.906	16881.32
244.977	16843.49
245.048	16813.85
245.119	16781.75
245.191	16739.82
245.262	16688.83
245.333	16687.48
245.405	16640.59
245.476	16626.08
245.547	16594.65
245.618	16584.68
245.689	16552.48
245.761	16529.16
245.832	16490.36
245.903	16468.38
245.974	16433.39
246.045	16395.31
246.117	16381.82
246.188	16332.41
246.259	16279.01
246.33	16244.12
246.401	16206.47
246.473	16157.89
246.544	16124.39
246.615	16099.09
246.686	16056.24
246.757	16040.29
246.828	15988.42
246.899	15976.23
246.97	15923.11
247.042	15887.98
247.113	15849.66
247.184	15844.69
247.255	15801.84
247.326	15773.65
247.397	15748.1
247.468	15716.29
247.539	15678.4
247.61	15627.65
247.681	15611.12
247.752	15600.66
247.823	15560.41
247.894	15530.57
247.965	15489.7
248.037	15446.94
248.108	15400.14
248.179	15378.35
248.25	15344.95
248.321	15327.64
248.392	15283.49
248.463	15276.74
248.534	15240.74
248.605	15214.37
248.675	15180.63
248.746	15170.56
248.817	15146.31
248.888	15113.05
248.959	15067.21
249.03	15051.54
249.101	15024.79
249.172	14990.66
249.243	14938.94
249.314	14933.73
249.385	14903.99
249.456	14886.49
249.527	14857.57
249.598	14842.24
249.669	14810.23
249.739	14783.19
249.81	14756.97
249.881	14718.02
249.952	14685.34
250.023	14656.46
250.094	14614.57
250.165	14572.01
250.235	14535.76
250.306	14503.46
250.377	14467.5
250.448	14444.51
250.519	14393.41
250.59	14378.37
250.66	14348.48
250.731	14340.58
250.802	14307.17
250.873	14287.45
250.944	14258.96
251.014	14223.2
251.085	14213.75
251.156	14189.79
251.227	14181.55
251.297	14167.13
251.368	14155.71
251.439	14143.32
251.51	14137.97
251.58	14102.49
251.651	14069.9
251.722	14058.33
251.792	14017.89
251.863	13992.96
251.934	13985.68
252.005	13989.2
252.075	13965.2
252.146	13955.36
252.217	13935.65
252.287	13920.7
252.358	13895.83
252.429	13890.77
252.499	13866.61
252.57	13849.45
252.641	13844.49
252.711	13814.65
252.782	13768.23
252.852	13767.26
252.923	13745.38
252.994	13719.1
253.064	13709.22
253.135	13678.75
253.205	13646.7
253.276	13645.88
253.347	13635.56
253.417	13604.61
253.488	13579.3
253.558	13552.65
253.629	13523.96
253.699	13506.51
253.77	13490.36
253.841	13459.66
253.911	13437.96
253.982	13413.23
254.052	13390.72
254.123	13366.57
254.193	13342.56
254.264	13364.88
254.334	13324.34
254.405	13287.85
254.475	13245.91
254.546	13228.7
254.616	13227.06
254.687	13207.92
254.757	13187.14
254.827	13169.5
254.898	13150.03
254.968	13128.48
255.039	13096.47
255.109	13080.27
255.18	13056.75
255.25	13006.52
255.321	12991.96
255.391	12960.09
255.461	12971.33
255.532	12922.11
255.602	12889.86
255.673	12848.88
255.743	12817.36
255.813	12771.32
255.884	12762.21
255.954	12754.59
256.024	12754.88
256.095	12723.11
256.165	12691.2
256.235	12675.05
256.306	12644.2
256.376	12631.57
256.446	12614.36
256.517	12607.04
256.587	12603.85
256.657	12580.76
256.728	12573.24
256.798	12551.99
256.868	12535.55
256.938	12499.49
257.009	12491.87
257.079	12487.2
257.149	12493.66
257.219	12446.08
257.29	12437.07
257.36	12392.53
257.43	12386.6
257.5	12338.39
257.571	12317.62
257.641	12301.28
257.711	12268.45
257.781	12256.79
257.852	12244.45
257.922	12205.98
257.992	12180
258.062	12150.88
258.132	12134.35
258.202	12114.49
258.273	12097.96
258.343	12089.62
258.413	12062.77
258.483	12039.1
258.553	12003.14
258.623	11976.87
258.693	11967.52
258.764	11968.87
258.834	11969.07
258.904	11948.1
258.974	11924.96
259.044	11908.19
259.114	11899.46
259.184	11887.17
259.254	11867.07
259.324	11828.22
259.394	11822.1
259.464	11821.77
259.535	11801.43
259.605	11778.67
259.675	11747.15
259.745	11738.04
259.815	11712.59
259.885	11688.45
259.955	11697.61
260.025	11676.4
260.095	11660.59
260.165	11650.13
260.235	11639.48
260.305	11614.71
260.375	11586.17
260.445	11597.4
260.515	11597.11
260.585	11594.36
260.655	11581.59
260.725	11575.33
260.795	11569.35
260.865	11577.69
260.934	11555.28
261.004	11550.22
261.074	11526.94
261.144	11530.89
261.214	11520.33
261.284	11503.61
261.354	11496.38
261.424	11473.15
261.494	11474.11
261.564	11451.03
261.634	11435.32
261.703	11400.08
261.773	11389.43
261.843	11375.8
