Data from 20250703_urea_0.1M_MAYP1162681_13-41-05-023.txt Node
Date: Thu Jul 03 13:41:05 BST 2025
User: adleo
Spectrometer: MAYP116268
Trigger mode: 0
Integration Time (sec): 1.000000E0
Scans to average: 1
Electric dark correction enabled: true
Nonlinearity correction enabled: true
Boxcar width: 10
XAxis mode: Wavelengths
Number of Pixels in Spectrum: 2068
>>>>>Begin Spectral Data<<<<<
179.565	1228.29
179.642	1283.9
179.718	1328.81
179.795	1368.23
179.871	1399.87
179.948	1419.25
180.024	1440.52
180.101	1465.64
180.177	1481.92
180.254	1502.56
180.33	1525.89
180.407	1582.15
180.483	1681.35
180.56	1774.34
180.636	1860.27
180.712	1847
180.789	1858.13
180.865	1872.24
180.942	1878.71
181.018	1887.98
181.095	1901.62
181.171	1907.18
181.248	1909.61
181.324	1923.92
181.4	1931.86
181.477	1944.94
181.553	1959.58
181.63	1979.5
181.706	1992.49
181.782	2000.85
181.859	2001.04
181.935	2003.66
182.011	1998.48
182.088	2012.27
182.164	2030.73
182.24	2044.09
182.317	2054.78
182.393	2051.79
182.469	2067.01
182.546	2081.04
182.622	2083.32
182.698	2082.37
182.775	2092.21
182.851	2109.01
182.927	2104.39
183.003	2098.97
183.08	2093.88
183.156	2101.54
183.232	2095.93
183.308	2085.61
183.385	2091.74
183.461	2114.05
183.537	2116.95
183.613	2128.75
183.69	2120.04
183.766	2107.86
183.842	2114.52
183.918	2122.89
183.995	2138.54
184.071	2141.87
184.147	2135.55
184.223	2124.18
184.299	2138.75
184.375	2128.66
184.452	2131.52
184.528	2182.91
184.604	2196.51
184.68	2207.12
184.756	2215.35
184.832	2222.92
184.908	2229.53
184.985	2230.86
185.061	2213.02
185.137	2222.3
185.213	2211.22
185.289	2213.74
185.365	2208.46
185.441	2210.07
185.517	2221.78
185.593	2213.84
185.669	2208.65
185.745	2221.31
185.822	2238.62
185.898	2225.05
185.974	2234.14
186.05	2225.43
186.126	2187.93
186.202	2180.75
186.278	2176.66
186.354	2166.19
186.43	2174.75
186.506	2170.43
186.582	2167.91
186.658	2175.66
186.734	2153.07
186.81	2156.49
186.886	2158.01
186.962	2169.38
187.038	2164.67
187.114	2155.39
187.19	2167.05
187.266	2157.53
187.341	2157.34
187.417	2153.97
187.493	2157.15
187.569	2161.34
187.645	2159.39
187.721	2149.21
187.797	2155.96
187.873	2163.1
187.949	2159.01
188.025	2150.73
188.101	2157.81
188.176	2161.76
188.252	2155.15
188.328	2166.23
188.404	2168.04
188.48	2163.9
188.556	2159.04
188.632	2156.71
188.707	2158.66
188.783	2153.62
188.859	2150.39
188.935	2141.01
189.011	2144.72
189.086	2139.06
189.162	2129.79
189.238	2126.17
189.314	2123.89
189.39	2118.42
189.465	2107.38
189.541	2123.41
189.617	2109.1
189.693	2103.2
189.768	2110.29
189.844	2135.84
189.92	2129.85
189.996	2137.42
190.071	2147.31
190.147	2143.36
190.223	2153.78
190.298	2145.5
190.374	2132.19
190.45	2145.22
190.526	2154.45
190.601	2150.93
190.677	2151.74
190.753	2178.63
190.828	2183.96
190.904	2194.85
190.98	2211.08
191.055	2222.93
191.131	2213.6
191.207	2234.72
191.282	2244.14
191.358	2233.96
191.433	2217.96
191.509	2227.43
191.585	2223.48
191.66	2225.62
191.736	2232.71
191.811	2224.48
191.887	2242.66
191.963	2266.88
192.038	2269.78
192.114	2267.83
192.189	2271.54
192.265	2266.59
192.34	2247.98
192.416	2243.46
192.491	2239.75
192.567	2238.75
192.642	2241.27
192.718	2242.32
192.793	2231.18
192.869	2224.85
192.944	2226
193.02	2232.47
193.095	2236.7
193.171	2245.03
193.246	2243.7
193.322	2244.08
193.397	2243.93
193.473	2228.08
193.548	2210.38
193.624	2221.04
193.699	2219.76
193.775	2239.8
193.85	2241.75
193.925	2248.94
194.001	2249.41
194.076	2245.56
194.152	2235.71
194.227	2227.76
194.302	2218.39
194.378	2223.05
194.453	2220.96
194.529	2234.04
194.604	2223.05
194.679	2217.77
194.755	2196.7
194.83	2211.5
194.905	2211.88
194.981	2219.26
195.056	2213.5
195.131	2221.45
195.207	2217.83
195.282	2211.31
195.357	2190.13
195.433	2205.07
195.508	2192.79
195.583	2200.93
195.659	2214.73
195.734	2221.25
195.809	2219.73
195.884	2226.29
195.96	2223.67
196.035	2239.9
196.11	2235.95
196.185	2247.22
196.261	2252.17
196.336	2284.91
196.411	2270.15
196.486	2273.05
196.561	2269.91
196.637	2276.62
196.712	2291.81
196.787	2293.62
196.862	2304.8
196.937	2312.98
197.013	2319.79
197.088	2332.35
197.163	2353.92
197.238	2371.55
197.313	2372.74
197.388	2386.78
197.464	2418.54
197.539	2432.25
197.614	2426.63
197.689	2439.01
197.764	2454.06
197.839	2472.29
197.914	2465.67
197.989	2487.38
198.065	2502
198.14	2551.69
198.215	2581.74
198.29	2590.41
198.365	2604.42
198.44	2617.41
198.515	2645.47
198.59	2662.19
198.665	2686.44
198.74	2693.49
198.815	2693.49
198.89	2714.12
198.965	2749.33
199.04	2746.09
199.115	2760.05
199.19	2802.45
199.265	2805.26
199.34	2816.65
199.415	2853.56
199.49	2875.14
199.565	2886.29
199.64	2910.98
199.715	2907.25
199.79	2912.88
199.865	2921.6
199.94	2917.93
200.015	2950.11
200.09	2955.4
200.165	2963.51
200.24	2974.57
200.315	3016.7
200.39	3032.25
200.464	3042.68
200.539	3040.73
200.614	3057.6
200.689	3079.58
200.764	3086.17
200.839	3104.37
200.914	3110.43
200.989	3100.5
201.063	3114.9
201.138	3094.56
201.213	3096.56
201.288	3078.02
201.363	3083.16
201.438	3085.12
201.512	3102.9
201.587	3084.87
201.662	3088.88
201.737	3098.89
201.812	3103.52
201.886	3072.69
201.961	3086.09
202.036	3073.94
202.111	3071.46
202.186	3043.2
202.26	3030.61
202.335	3011.67
202.41	3008.72
202.485	2992.99
202.559	2974.25
202.634	2951.51
202.709	2967.33
202.784	2947.64
202.858	2954.89
202.933	2938.01
203.008	2939.2
203.082	2924.67
203.157	2932.44
203.232	2902.89
203.306	2892.64
203.381	2869.51
203.456	2855.31
203.53	2839.04
203.605	2831.41
203.68	2824.74
203.754	2834.79
203.829	2834.41
203.904	2833.45
203.978	2843.56
204.053	2870.69
204.127	2880.89
204.202	2905.97
204.277	2916.46
204.351	2940.25
204.426	2963.86
204.5	2998.48
204.575	2997.53
204.65	3049.06
204.724	3080.37
204.799	3126.57
204.873	3169.38
204.948	3222.34
205.022	3263.37
205.097	3314.18
205.171	3389.3
205.246	3454.24
205.32	3513.89
205.395	3585.58
205.469	3646.35
205.544	3722.52
205.618	3783.16
205.693	3877.01
205.767	3948.22
205.842	4058.58
205.916	4140.41
205.991	4225.07
206.065	4324.81
206.14	4442.05
206.214	4539.81
206.289	4648.49
206.363	4775.3
206.438	4889.92
206.512	5014.76
206.586	5158.75
206.661	5291.87
206.735	5395.79
206.81	5530.06
206.884	5679.8
206.958	5803.04
207.033	5964.18
207.107	6118.48
207.181	6296.56
207.256	6440.28
207.33	6611.09
207.405	6777.14
207.479	6958.44
207.553	7117.05
207.628	7263.82
207.702	7439.75
207.776	7601.85
207.851	7769.84
207.925	7955.49
207.999	8129.56
208.073	8295.76
208.148	8471.24
208.222	8636.54
208.296	8855.82
208.371	9059.03
208.445	9255.72
208.519	9467.98
208.593	9662.75
208.668	9843.21
208.742	10037.73
208.816	10230.15
208.89	10429.63
208.965	10621.21
209.039	10813.83
209.113	11026.79
209.187	11239.17
209.261	11421.46
209.336	11636.15
209.41	11844.1
209.484	12040.17
209.558	12250.74
209.632	12456.79
209.707	12661.54
209.781	12868.42
209.855	13064.75
209.929	13266.58
210.003	13459.35
210.077	13647.49
210.151	13886.19
210.226	14104.26
210.3	14310.62
210.374	14520.31
210.448	14707.29
210.522	14891.81
210.596	15086.84
210.67	15280.9
210.744	15495.64
210.818	15717.65
210.892	15911.99
210.966	16083.68
211.041	16273.92
211.115	16437.41
211.189	16634.87
211.263	16819.85
211.337	16999.04
211.411	17186.28
211.485	17341.51
211.559	17522.29
211.633	17691.55
211.707	17812.85
211.781	17980.31
211.855	18103.35
211.929	18251.25
212.003	18387.68
212.077	18564.64
212.151	18737.31
212.225	18898.89
212.299	19048.04
212.373	19173.09
212.447	19304.32
212.52	19478.34
212.594	19621.61
212.668	19784.98
212.742	19916.45
212.816	20050.28
212.89	20182.61
212.964	20314.66
213.038	20458.47
213.112	20604.84
213.186	20741.38
213.26	20855.16
213.333	20942.44
213.407	21071.27
213.481	21209.93
213.555	21345.41
213.629	21450.63
213.703	21545.39
213.777	21659.58
213.85	21759.22
213.924	21923.36
213.998	22055.64
214.072	22165.21
214.146	22259.7
214.219	22363.83
214.293	22457.83
214.367	22567.85
214.441	22684.33
214.515	22777.43
214.588	22843.63
214.662	22902.01
214.736	22985.71
214.81	23076.83
214.883	23184.73
214.957	23266.41
215.031	23326.44
215.105	23402.43
215.178	23476.07
215.252	23558.43
215.326	23617.8
215.4	23677.98
215.473	23698.33
215.547	23749.22
215.621	23808.79
215.694	23888.37
215.768	23931.34
215.842	23980.49
215.915	24033.93
215.989	24070.69
216.063	24118.2
216.136	24190.16
216.21	24246.02
216.284	24316.25
216.357	24392.08
216.431	24447.56
216.504	24520.94
216.578	24606.91
216.652	24668.12
216.725	24717.96
216.799	24768.38
216.873	24825.31
216.946	24877.8
217.02	24923.87
217.093	24962.57
217.167	24992.39
217.24	25020.62
217.314	25072.48
217.387	25124.73
217.461	25163.53
217.535	25235.68
217.608	25265.26
217.682	25299.85
217.755	25363.6
217.829	25387.49
217.902	25427.06
217.976	25461.67
218.049	25481.5
218.123	25503.56
218.196	25549.65
218.27	25586.82
218.343	25614.71
218.417	25644.69
218.49	25678.04
218.563	25730.5
218.637	25764.33
218.71	25812.02
218.784	25862.08
218.857	25903.93
218.931	25940.08
219.004	25969.63
219.077	25994.1
219.151	26037.26
219.224	26071.87
219.298	26088.52
219.371	26136.75
219.444	26142.11
219.518	26162.38
219.591	26196.8
219.665	26243.4
219.738	26260.01
219.811	26268.45
219.885	26301.72
219.958	26337.45
220.031	26355.26
220.105	26377.23
220.178	26407.69
220.251	26415.13
220.325	26427.49
220.398	26451.68
220.471	26468.53
220.544	26487.17
220.618	26494.08
220.691	26508.17
220.764	26525.85
220.838	26552.98
220.911	26558.34
220.984	26596.29
221.057	26618.36
221.131	26634.87
221.204	26612.52
221.277	26647.33
221.35	26694.32
221.424	26693.35
221.497	26694.76
221.57	26707.98
221.643	26714.46
221.716	26733.82
221.79	26747.1
221.863	26750.09
221.936	26747.68
222.009	26750.82
222.082	26765.11
222.155	26760.33
222.229	26782.98
222.302	26782.69
222.375	26767.38
222.448	26771.49
222.521	26769.46
222.594	26753.86
222.667	26733
222.74	26744.64
222.814	26723.78
222.887	26710.06
222.96	26718.75
223.033	26717.74
223.106	26718.71
223.179	26718.22
223.252	26701.13
223.325	26689.1
223.398	26679.3
223.471	26663.56
223.544	26662.3
223.617	26643.18
223.69	26633.18
223.763	26607.3
223.837	26604.74
223.91	26609.42
223.983	26574.37
224.056	26539.61
224.129	26534.78
224.202	26523.92
224.275	26507.88
224.348	26484.42
224.42	26446.47
224.493	26412.72
224.566	26394.46
224.639	26390.94
224.712	26367.52
224.785	26344.73
224.858	26321.8
224.931	26299.78
225.004	26264.49
225.077	26244.65
225.15	26206.46
225.223	26184.88
225.296	26179.09
225.369	26133.32
225.442	26108.41
225.514	26094.6
225.587	26083.26
225.66	26064.05
225.733	26047.68
225.806	26021.86
225.879	25998.78
225.952	25968.18
226.025	25948.82
226.097	25932.6
226.17	25894.85
226.243	25842.05
226.316	25812.55
226.389	25795.95
226.461	25776.3
226.534	25763.46
226.607	25723.21
226.68	25711.29
226.753	25682.19
226.825	25634.69
226.898	25630.68
226.971	25584.93
227.044	25562.73
227.117	25540.77
227.189	25513.88
227.262	25499.45
227.335	25475.75
227.407	25437.92
227.48	25414.18
227.553	25392.27
227.626	25356.6
227.698	25317.85
227.771	25303.9
227.844	25272.59
227.916	25236.34
227.989	25187.65
228.062	25156.34
228.134	25152.77
228.207	25114.21
228.28	25083
228.352	25050.47
228.425	25011.48
228.498	24997.54
228.57	24959.33
228.643	24933.8
228.716	24903.83
228.788	24859.11
228.861	24819.88
228.934	24810.09
229.006	24783.84
229.079	24756.14
229.151	24716.82
229.224	24679.77
229.296	24650.54
229.369	24651.5
229.442	24627.86
229.514	24596.46
229.587	24579.09
229.659	24526.36
229.732	24500.84
229.804	24479.09
229.877	24470.21
229.949	24455.55
230.022	24437.26
230.094	24396.17
230.167	24367.56
230.239	24327.13
230.312	24294.48
230.384	24284.25
230.457	24245.28
230.529	24210.74
230.602	24181.85
230.674	24164.15
230.747	24149.63
230.819	24134.92
230.892	24064.59
230.964	24035.12
231.037	24009.51
231.109	23972.8
231.181	23946.71
231.254	23911.46
231.326	23878.52
231.399	23841.66
231.471	23792.47
231.544	23734.69
231.616	23724.71
231.688	23697.89
231.761	23649.81
231.833	23619.14
231.905	23566.58
231.978	23546.08
232.05	23512.18
232.122	23467.33
232.195	23422.91
232.267	23394.66
232.339	23346.96
232.412	23325.02
232.484	23279.89
232.556	23231.33
232.629	23212
232.701	23189.19
232.773	23159.24
232.846	23115.17
232.918	23067.63
232.99	23043.95
233.062	23021.44
233.135	22981.56
233.207	22923.03
233.279	22907.12
233.351	22876.98
233.424	22827.61
233.496	22769.08
233.568	22757.56
233.64	22712.48
233.713	22674.39
233.785	22634.52
233.857	22603.18
233.929	22553.52
234.001	22541.09
234.074	22523.78
234.146	22475.76
234.218	22436.56
234.29	22396.36
234.362	22362.23
234.434	22320.48
234.507	22268.17
234.579	22219.82
234.651	22177.02
234.723	22148.81
234.795	22100.08
234.867	22056.7
234.939	22042.57
235.012	22010.56
235.084	21960.91
235.156	21935.17
235.228	21888.17
235.3	21843.54
235.372	21794.37
235.444	21768.29
235.516	21704.47
235.588	21666.2
235.66	21623.73
235.732	21569.17
235.804	21588.74
235.876	21556.25
235.948	21530.47
236.02	21490.32
236.092	21447.47
236.164	21403.18
236.236	21355.07
236.308	21314.68
236.38	21273.96
236.452	21229.18
236.524	21193.95
236.596	21171.92
236.668	21130.95
236.74	21087.96
236.812	21052.49
236.884	21025.5
236.956	20984.97
237.028	20936.92
237.1	20894.99
237.172	20869.73
237.244	20850.17
237.316	20772.85
237.388	20717.09
237.46	20665.96
237.532	20637.14
237.604	20585.96
237.675	20560.56
237.747	20535.36
237.819	20499.69
237.891	20456.22
237.963	20403.12
238.035	20356.18
238.107	20273.53
238.178	20253.33
238.25	20209.09
238.322	20185.38
238.394	20129.29
238.466	20091.22
238.538	20061.19
238.609	20027.27
238.681	19965.82
238.753	19915.03
238.825	19871.75
238.897	19839.51
238.968	19823.27
239.04	19775.47
239.112	19768.29
239.184	19712.53
239.255	19665.88
239.327	19628.24
239.399	19600.1
239.471	19565.55
239.542	19535.82
239.614	19517.07
239.686	19447.34
239.758	19427.15
239.829	19379.34
239.901	19347.68
239.973	19301.03
240.044	19266.29
240.116	19226.29
240.188	19190.63
240.259	19147.6
240.331	19099.74
240.403	19073.82
240.474	19023.46
240.546	18975.8
240.618	18913.97
240.689	18885.2
240.761	18848.72
240.833	18822.51
240.904	18777.55
240.976	18742.85
241.048	18702.9
241.119	18676.64
241.191	18650.04
241.262	18613.99
241.334	18568.69
241.405	18533.75
241.477	18494.72
241.549	18453.33
241.62	18414.58
241.692	18377.67
241.763	18356.61
241.835	18319.6
241.906	18267.41
241.978	18198.45
242.049	18173.58
242.121	18155.6
242.192	18126.21
242.264	18068.81
242.335	18005.39
242.407	17982.79
242.478	17940.91
242.55	17897.88
242.621	17840.82
242.693	17794.75
242.764	17766.75
242.836	17721.3
242.907	17686.94
242.979	17650.9
243.05	17622.85
243.122	17585.02
243.193	17546.03
243.264	17479.91
243.336	17446.18
243.407	17421.93
243.479	17418.95
243.55	17385.6
243.622	17342.18
243.693	17295.77
243.764	17280.59
243.836	17238.9
243.907	17189.35
243.978	17150.36
244.05	17126.89
244.121	17082.41
244.192	17062.89
244.264	17009.78
244.335	16978.31
244.407	16925.92
244.478	16898.74
244.549	16845.73
244.62	16794.25
244.692	16758.54
244.763	16739.94
244.834	16698.92
244.906	16649.09
244.977	16622.15
245.048	16604.56
245.119	16559.4
245.191	16515.3
245.262	16455.73
245.333	16450.52
245.405	16415.48
245.476	16383.33
245.547	16355.24
245.618	16333.21
245.689	16293.16
245.761	16262.5
245.832	16232.43
245.903	16210.11
245.974	16180.04
246.045	16149.43
246.117	16133.57
246.188	16086.92
246.259	16039.01
246.33	15996.25
246.401	15971.29
246.473	15904.15
246.544	15861.93
246.615	15836.62
246.686	15809.68
246.757	15791.89
246.828	15734.58
246.899	15719.74
246.97	15673.56
247.042	15623.33
247.113	15595.76
247.184	15579.18
247.255	15533.78
247.326	15502.54
247.397	15465.43
247.468	15433.71
247.539	15410.87
247.61	15369.99
247.681	15344.73
247.752	15327.48
247.823	15283.27
247.894	15255.08
247.965	15218.68
248.037	15174.96
248.108	15136.26
248.179	15100.01
248.25	15070.89
248.321	15058.75
248.392	15006.59
248.463	15002.59
248.534	14970.54
248.605	14944.02
248.675	14906.04
248.746	14886.42
248.817	14860.78
248.888	14840.58
248.959	14791.51
249.03	14770.73
249.101	14740.27
249.172	14713.9
249.243	14663.96
249.314	14659.67
249.385	14626.75
249.456	14613.44
249.527	14588.18
249.598	14563.74
249.669	14528.7
249.739	14505.7
249.81	14481.89
249.881	14453.06
249.952	14422.84
250.023	14397.87
250.094	14359.45
250.165	14326.96
250.235	14298.23
250.306	14272.63
250.377	14225.24
250.448	14194.3
250.519	14135.1
250.59	14128.35
250.66	14095.38
250.731	14089.83
250.802	14057.92
250.873	14035.07
250.944	14013.28
251.014	13977.71
251.085	13973.85
251.156	13965.12
251.227	13949.02
251.297	13932.59
251.368	13922.61
251.439	13901.83
251.51	13889.78
251.58	13856.66
251.651	13829.33
251.722	13813.27
251.792	13767.72
251.863	13749.98
251.934	13745.93
252.005	13751.09
252.075	13721.88
252.146	13713.54
252.217	13700.95
252.287	13688.56
252.358	13660.07
252.429	13646.82
252.499	13615.48
252.57	13596.39
252.641	13581.74
252.711	13546.02
252.782	13501.38
252.852	13488.7
252.923	13456.93
252.994	13433.6
253.064	13418.22
253.135	13380.28
253.205	13354.54
253.276	13350.44
253.347	13343.07
253.417	13316.46
253.488	13292.89
253.558	13259.29
253.629	13231.71
253.699	13209.63
253.77	13195.07
253.841	13173.96
253.911	13155.59
253.982	13140.17
254.052	13120.5
254.123	13099.19
254.193	13088.73
254.264	13106.86
254.334	13072.68
254.405	13046.98
254.475	13014.45
254.546	12990.2
254.616	12990.68
254.687	12974
254.757	12948.89
254.827	12921.89
254.898	12901.55
254.968	12876.24
255.039	12852.71
255.109	12836.66
255.18	12802.29
255.25	12750.42
255.321	12732.64
255.391	12686.07
255.461	12687.18
255.532	12644.52
255.602	12615.16
255.673	12569.32
255.743	12537.11
255.813	12492.91
255.884	12479.08
255.954	12460.18
256.024	12459.17
256.095	12436.9
256.165	12398.82
256.235	12390.19
256.306	12364.01
256.376	12358.66
256.446	12347.77
256.517	12329.55
256.587	12318.56
256.657	12306.22
256.728	12296.72
256.798	12276.86
256.868	12261.68
256.938	12221.53
257.009	12211.79
257.079	12197.13
257.149	12202.92
257.219	12162.38
257.29	12151.2
257.36	12110.42
257.43	12102.51
257.5	12063.86
257.571	12031.95
257.641	12022.07
257.711	11991.36
257.781	11976.42
257.852	11953.04
257.922	11915.35
257.992	11898.67
258.062	11877.03
258.132	11869.8
258.202	11850.18
258.273	11837.12
258.343	11837.84
258.413	11812.68
258.483	11789.01
258.553	11755.18
258.623	11732.52
258.693	11717.34
258.764	11714.88
258.834	11716.76
258.904	11703.75
258.974	11682.83
259.044	11669.63
259.114	11659.74
259.184	11645.77
259.254	11624.32
259.324	11589.62
259.394	11573.47
259.464	11566.63
259.535	11547.64
259.605	11516.5
259.675	11485.37
259.745	11470.28
259.815	11438.04
259.885	11423.77
259.955	11433.41
260.025	11414.52
260.095	11387.53
260.165	11377.6
260.235	11368.54
260.305	11340.73
260.375	11303
260.445	11307.67
260.515	11303.87
260.585	11295.67
260.655	11278.61
260.725	11274.18
260.795	11268.49
260.865	11273.65
260.934	11250.9
261.004	11239.04
261.074	11221.69
261.144	11225.31
261.214	11221.69
261.284	11206.46
261.354	11200.06
261.424	11167.67
261.494	11170.12
261.564	11160.82
261.634	11155.43
261.703	11123.23
261.773	11121.84
