Data from 20250703_urea_0.1M_MAYP1162681_17-11-04-982.txt Node
Date: Thu Jul 03 17:11:04 BST 2025
User: adleo
Spectrometer: MAYP116268
Trigger mode: 0
Integration Time (sec): 1.000000E0
Scans to average: 1
Electric dark correction enabled: true
Nonlinearity correction enabled: true
Boxcar width: 10
XAxis mode: Wavelengths
Number of Pixels in Spectrum: 2068
>>>>>Begin Spectral Data<<<<<
179.565	1326.14
179.642	1386.66
179.718	1433.88
179.795	1473.57
179.871	1507.37
179.948	1527.83
180.024	1550.11
180.101	1570.53
180.177	1588.17
180.254	1613.73
180.33	1637.04
180.407	1701.78
180.483	1803.92
180.56	1904.61
180.636	1996.91
180.712	1981.31
180.789	1992.15
180.865	2008.89
180.942	2017.73
181.018	2026.62
181.095	2039.8
181.171	2047.32
181.248	2047.6
181.324	2064.49
181.4	2074
181.477	2088.8
181.553	2105.92
181.63	2126.23
181.706	2150.87
181.782	2159.72
181.859	2160.57
181.935	2168.57
182.011	2162.38
182.088	2183.6
182.164	2203.98
182.24	2217.44
182.317	2227.8
182.393	2227.42
182.469	2238.61
182.546	2251.17
182.622	2258.11
182.698	2253.93
182.775	2264.87
182.851	2282.67
182.927	2274.39
183.003	2269.34
183.08	2261.07
183.156	2267.06
183.232	2264.49
183.308	2247.79
183.385	2255.88
183.461	2273.49
183.537	2274.58
183.613	2292.14
183.69	2280.62
183.766	2268.58
183.842	2278.67
183.918	2284.38
183.995	2299.61
184.071	2303.75
184.147	2299.04
184.223	2287.95
184.299	2300.95
184.375	2288.77
184.452	2291.91
184.528	2346.9
184.604	2359.27
184.68	2372.78
184.756	2382.68
184.832	2389.78
184.908	2395.96
184.985	2395.29
185.061	2375.83
185.137	2386.06
185.213	2370.88
185.289	2372.12
185.365	2363.51
185.441	2358.7
185.517	2374.17
185.593	2368.13
185.669	2367.61
185.745	2378.65
185.822	2395.3
185.898	2388.11
185.974	2395.82
186.05	2389.77
186.126	2353.07
186.202	2344.45
186.278	2340.36
186.354	2329.41
186.43	2335.93
186.506	2336.31
186.582	2335.84
186.658	2343.93
186.734	2321.56
186.81	2322.94
186.886	2327.56
186.962	2341.07
187.038	2340.07
187.114	2330.45
187.19	2339.45
187.266	2327.88
187.341	2327.98
187.417	2320.03
187.493	2319.41
187.569	2324.89
187.645	2318.22
187.721	2303.8
187.797	2312.03
187.873	2318.65
187.949	2312.79
188.025	2303.84
188.101	2304.99
188.176	2310.17
188.252	2304.61
188.328	2311.6
188.404	2313.36
188.48	2306.6
188.556	2300.13
188.632	2297.65
188.707	2298.61
188.783	2294.89
188.859	2286
188.935	2275.24
189.011	2283
189.086	2273.86
189.162	2268.01
189.238	2265.82
189.314	2264.11
189.39	2259.01
189.465	2251.26
189.541	2268.82
189.617	2257.35
189.693	2249.69
189.768	2253.64
189.844	2281.73
189.92	2275.74
189.996	2283.97
190.071	2296.01
190.147	2295.96
190.223	2307.34
190.298	2298.87
190.374	2287.16
190.45	2302.62
190.526	2312.57
190.601	2305.38
190.677	2307.76
190.753	2335.43
190.828	2338.71
190.904	2353.18
190.98	2367.89
191.055	2375.27
191.131	2363.75
191.207	2381.22
191.282	2396.87
191.358	2384.45
191.433	2367.17
191.509	2380.68
191.585	2377.96
191.66	2378.35
191.736	2383.82
191.811	2374.3
191.887	2390.53
191.963	2416.53
192.038	2423.15
192.114	2420.77
192.189	2425.05
192.265	2422.58
192.34	2400.14
192.416	2398.52
192.491	2396.38
192.567	2399.91
192.642	2404.29
192.718	2406.67
192.793	2394.72
192.869	2390.2
192.944	2395.33
193.02	2408.67
193.095	2413.67
193.171	2419.9
193.246	2420.95
193.322	2419.95
193.397	2421.09
193.473	2407.19
193.548	2382.9
193.624	2391.29
193.699	2392.1
193.775	2411.34
193.85	2415.43
193.925	2424.09
194.001	2426.47
194.076	2416.76
194.152	2405.76
194.227	2398.62
194.302	2387.34
194.378	2394.81
194.453	2389.34
194.529	2400.91
194.604	2381.34
194.679	2373.68
194.755	2353.36
194.83	2368.6
194.905	2364.79
194.981	2375.51
195.056	2368.13
195.131	2376.03
195.207	2371.27
195.282	2360.75
195.357	2338.22
195.433	2353.65
195.508	2337.89
195.583	2345.65
195.659	2361.03
195.734	2371.98
195.809	2372.17
195.884	2382.02
195.96	2379.31
196.035	2394.92
196.11	2391.68
196.185	2404.44
196.261	2407.06
196.336	2439.23
196.411	2422.99
196.486	2428.8
196.561	2417.71
196.637	2425.13
196.712	2442.71
196.787	2446.99
196.862	2462.03
196.937	2476.03
197.013	2480.36
197.088	2490.93
197.163	2511.75
197.238	2531.29
197.313	2527.62
197.388	2540.62
197.464	2572.39
197.539	2585.11
197.614	2575.68
197.689	2589.25
197.764	2607.6
197.839	2632.46
197.914	2626.5
197.989	2650.23
198.065	2667.76
198.14	2724.86
198.215	2756.54
198.29	2770.7
198.365	2786.9
198.44	2799.91
198.515	2829.6
198.59	2846.9
198.665	2877.83
198.74	2887.12
198.815	2887.6
198.89	2912.28
198.965	2943.32
199.04	2939.22
199.115	2957.57
199.19	3007.38
199.265	3010.09
199.34	3020.77
199.415	3054.21
199.49	3077.23
199.565	3085.91
199.64	3111.42
199.715	3108.56
199.79	3114.85
199.865	3122.01
199.94	3116.91
200.015	3148.91
200.09	3151.92
200.165	3160.93
200.24	3169.76
200.315	3217.26
200.39	3233.72
200.464	3245.17
200.539	3249.32
200.614	3267.73
200.689	3291.34
200.764	3299.41
200.839	3321.63
200.914	3330.79
200.989	3322.39
201.063	3339.23
201.138	3321.54
201.213	3318.87
201.288	3299.74
201.363	3307.95
201.438	3307.42
201.512	3326.07
201.587	3309.46
201.662	3314.23
201.737	3328.17
201.812	3335.04
201.886	3292.59
201.961	3300.23
202.036	3287.2
202.111	3285.01
202.186	3256.36
202.26	3241.47
202.335	3215.51
202.41	3213.13
202.485	3195.43
202.559	3176.92
202.634	3150.74
202.709	3163.84
202.784	3148.2
202.858	3150.92
202.933	3133.18
203.008	3131.94
203.082	3116.2
203.157	3120.92
203.232	3085.64
203.306	3070.37
203.381	3045.33
203.456	3031.31
203.53	3021.34
203.605	3012.18
203.68	2998.25
203.754	3003.59
203.829	3000.39
203.904	2999.35
203.978	2999.87
204.053	3022
204.127	3028.53
204.202	3050.24
204.277	3055.19
204.351	3074.85
204.426	3093.26
204.5	3117.07
204.575	3110.82
204.65	3157.4
204.724	3186.33
204.799	3228.15
204.873	3261.76
204.948	3304.42
205.022	3342.4
205.097	3378.27
205.171	3438.84
205.246	3501.36
205.32	3557.67
205.395	3616.23
205.469	3666.64
205.544	3739.24
205.618	3786.83
205.693	3872.38
205.767	3928.72
205.842	4025.62
205.916	4098.28
205.991	4165.89
206.065	4252.17
206.14	4358.2
206.214	4442.45
206.289	4528.32
206.363	4639.49
206.438	4739.85
206.512	4847.49
206.586	4971.47
206.661	5091.02
206.735	5178.28
206.81	5296.7
206.884	5431.12
206.958	5536.99
207.033	5680.56
207.107	5810.58
207.181	5980.68
207.256	6101.75
207.33	6258.41
207.405	6411.99
207.479	6574.27
207.553	6724.72
207.628	6852.49
207.702	7007.87
207.776	7144.7
207.851	7296.26
207.925	7463.55
207.999	7617.58
208.073	7768.78
208.148	7930.46
208.222	8077.99
208.296	8275.25
208.371	8448.59
208.445	8617.78
208.519	8810.92
208.593	8989.78
208.668	9155.15
208.742	9319.08
208.816	9487.91
208.89	9662.43
208.965	9826.39
209.039	9996.95
209.113	10185.33
209.187	10374.17
209.261	10542.05
209.336	10740.83
209.41	10934.28
209.484	11107.08
209.558	11305
209.632	11496.11
209.707	11673.94
209.781	11864.79
209.855	12051.03
209.929	12238.38
210.003	12415.18
210.077	12585.33
210.151	12791.15
210.226	12987.39
210.3	13182.47
210.374	13374.94
210.448	13550.55
210.522	13720.42
210.596	13895.36
210.67	14071.26
210.744	14283.69
210.818	14474.97
210.892	14651.97
210.966	14806.75
211.041	14981.54
211.115	15127.98
211.189	15311.14
211.263	15489.25
211.337	15650.72
211.411	15811.33
211.485	15956.84
211.559	16118.31
211.633	16272.02
211.707	16387.69
211.781	16550.74
211.855	16656.14
211.929	16790.95
212.003	16909.42
212.077	17080.07
212.151	17235.6
212.225	17389.86
212.299	17520.75
212.373	17647.5
212.447	17780.99
212.52	17945.57
212.594	18075.59
212.668	18223.2
212.742	18333.9
212.816	18462.81
212.89	18581.5
212.964	18716.92
213.038	18839.23
213.112	18981.44
213.186	19110.11
213.26	19219.88
213.333	19283.25
213.407	19407.87
213.481	19524.35
213.555	19657.21
213.629	19736.15
213.703	19828.38
213.777	19929.59
213.85	20017.63
213.924	20156.24
213.998	20258.5
214.072	20349.93
214.146	20438.6
214.219	20540.53
214.293	20639.23
214.367	20733.31
214.441	20844.21
214.515	20922.67
214.588	21005.71
214.662	21053.43
214.736	21126.2
214.81	21210.25
214.883	21308.09
214.957	21383.04
215.031	21458.9
215.105	21514.13
215.178	21592.36
215.252	21666.54
215.326	21713.1
215.4	21770.41
215.473	21799.72
215.547	21862.24
215.621	21925.15
215.694	22011.1
215.768	22046.58
215.842	22100.76
215.915	22154.13
215.989	22192.94
216.063	22251.08
216.136	22307.77
216.21	22369.43
216.284	22453.36
216.357	22524.71
216.431	22585.26
216.504	22653.92
216.578	22736.17
216.652	22808.24
216.725	22853.85
216.799	22925.7
216.873	22988.47
216.946	23054.43
217.02	23099.12
217.093	23141.41
217.167	23170.97
217.24	23197.1
217.314	23244.98
217.387	23284.23
217.461	23327
217.535	23388.39
217.608	23413.42
217.682	23446.5
217.755	23495.87
217.829	23527.95
217.902	23579.93
217.976	23627.49
218.049	23664.91
218.123	23684.3
218.196	23724.23
218.27	23766.86
218.343	23789.67
218.417	23835.2
218.49	23866.94
218.563	23929.54
218.637	23976.23
218.71	24039.61
218.784	24096.92
218.857	24151.71
218.931	24204.76
219.004	24241.13
219.077	24280.3
219.151	24329.6
219.224	24370.79
219.298	24422.17
219.371	24458.44
219.444	24470.98
219.518	24494.72
219.591	24523.52
219.665	24598.5
219.738	24640.61
219.811	24670.28
219.885	24700.48
219.958	24739.07
220.031	24768.36
220.105	24795.62
220.178	24824.57
220.251	24836.77
220.325	24867.17
220.398	24898.15
220.471	24913.1
220.544	24951.22
220.618	24963.38
220.691	24980.41
220.764	25004.78
220.838	25031.41
220.911	25052.07
220.984	25099.74
221.057	25138.24
221.131	25160.92
221.204	25142.05
221.277	25180.56
221.35	25230.27
221.424	25240.59
221.497	25252.99
221.57	25266.79
221.643	25290.15
221.716	25312.4
221.79	25329.82
221.863	25331.89
221.936	25335.95
222.009	25361.14
222.082	25375.32
222.155	25397.72
222.229	25434.15
222.302	25448.87
222.375	25444.09
222.448	25461.37
222.521	25465.96
222.594	25458.52
222.667	25460.5
222.74	25477.49
222.814	25481.74
222.887	25483.62
222.96	25506.35
223.033	25522.52
223.106	25532.46
223.179	25549.93
223.252	25554.81
223.325	25558.47
223.398	25563.54
223.471	25565.33
223.544	25570.2
223.617	25561.75
223.69	25559.39
223.763	25545.63
223.837	25556.93
223.91	25566.39
223.983	25544.62
224.056	25529.9
224.129	25533.71
224.202	25535.6
224.275	25523.87
224.348	25503.16
224.42	25469.53
224.493	25447.33
224.566	25426.86
224.639	25431.3
224.712	25419.77
224.785	25402.68
224.858	25383.48
224.931	25376.09
225.004	25362.15
225.077	25352.78
225.15	25319.73
225.223	25302.6
225.296	25309.55
225.369	25273.31
225.442	25255.69
225.514	25250.48
225.587	25249.61
225.66	25247.63
225.733	25233.35
225.806	25220.56
225.879	25206.76
225.952	25196.58
226.025	25209.85
226.097	25225.92
226.17	25197.21
226.243	25144.18
226.316	25115.9
226.389	25108.52
226.461	25087.82
226.534	25083.62
226.607	25051.29
226.68	25066.01
226.753	25048.64
226.825	25015.63
226.898	25013.7
226.971	24998.12
227.044	24989
227.117	24961.21
227.189	24938.24
227.262	24929.65
227.335	24912.42
227.407	24887.43
227.48	24871.08
227.553	24834.6
227.626	24796.38
227.698	24779.4
227.771	24778.53
227.844	24752.91
227.916	24724.45
227.989	24692.7
228.062	24656.14
228.134	24671.53
228.207	24650.25
228.28	24624.78
228.352	24608.13
228.425	24590.62
228.498	24580.44
228.57	24543.78
228.643	24535.62
228.716	24503.74
228.788	24475.32
228.861	24447.39
228.934	24441.12
229.006	24413.24
229.079	24390.03
229.151	24357.86
229.224	24326.22
229.296	24307.5
229.369	24315.17
229.442	24318.45
229.514	24291.54
229.587	24284.78
229.659	24230.95
229.732	24200.22
229.804	24186.13
229.877	24178.03
229.949	24163.03
230.022	24153.52
230.094	24127.19
230.167	24100.71
230.239	24078.62
230.312	24058.41
230.384	24063.81
230.457	24037.86
230.529	24019.05
230.602	24000.97
230.674	23982.3
230.747	23974.2
230.819	23961.56
230.892	23912.56
230.964	23881.5
231.037	23861.44
231.109	23840.17
231.181	23821.41
231.254	23781.43
231.326	23750.52
231.399	23704.12
231.471	23664.76
231.544	23609.97
231.616	23598.55
231.688	23576.89
231.761	23533.06
231.833	23497.62
231.905	23440.71
231.978	23413.56
232.05	23382.22
232.122	23346.34
232.195	23315.19
232.267	23298.45
232.339	23260.45
232.412	23246.47
232.484	23210.3
232.556	23172.93
232.629	23162.52
232.701	23150.13
232.773	23127.13
232.846	23102.54
232.918	23092.65
232.99	23068.3
233.062	23045.59
233.135	23015.02
233.207	22972.98
233.279	22957.64
233.351	22941.06
233.424	22907.31
233.496	22861.27
233.568	22850.61
233.64	22803.27
233.713	22775.16
233.785	22733.36
233.857	22700.28
233.929	22651.78
234.001	22637.08
234.074	22628.93
234.146	22567.6
234.218	22523.78
234.29	22484.1
234.362	22435.85
234.434	22377.41
234.507	22328.05
234.579	22277.19
234.651	22242.1
234.723	22209.07
234.795	22177.55
234.867	22138.26
234.939	22120.28
235.012	22097.33
235.084	22074.29
235.156	22063.92
235.228	22012.49
235.3	21976.05
235.372	21944.57
235.444	21917
235.516	21851.73
235.588	21811.48
235.66	21782.56
235.732	21744.81
235.804	21766.51
235.876	21752.91
235.948	21736.43
236.02	21701.92
236.092	21665.82
236.164	21627.35
236.236	21594.48
236.308	21558.96
236.38	21521.89
236.452	21479.81
236.524	21443.18
236.596	21411.95
236.668	21375.17
236.74	21337.19
236.812	21304.22
236.884	21272.46
236.956	21248.51
237.028	21209.76
237.1	21168.16
237.172	21148.74
237.244	21123.58
237.316	21049.3
237.388	21005.88
237.46	20960.86
237.532	20942.31
237.604	20891.9
237.675	20873.73
237.747	20845.25
237.819	20795.46
237.891	20757.87
237.963	20709.24
238.035	20664.52
238.107	20595.6
238.178	20570.44
238.25	20540.51
238.322	20522.78
238.394	20467.16
238.466	20415.79
238.538	20390.01
238.609	20355.69
238.681	20288.56
238.753	20235.74
238.825	20199.84
238.897	20160.61
238.968	20142.39
239.04	20097.24
239.112	20099.55
239.184	20044.18
239.255	20000.61
239.327	19967.8
239.399	19930.11
239.471	19898.69
239.542	19867.61
239.614	19840.62
239.686	19768.72
239.758	19746.22
239.829	19693.16
239.901	19672.63
239.973	19639.04
240.044	19608.68
240.116	19566.61
240.188	19531.77
240.259	19501.02
240.331	19459.39
240.403	19423.58
240.474	19368.88
240.546	19321.18
240.618	19257.61
240.689	19211.98
240.761	19165.14
240.833	19144.51
240.904	19095.99
240.976	19051.31
241.048	19016.23
241.119	18984.62
241.191	18963.95
241.262	18936.96
241.334	18896.09
241.405	18856.39
241.477	18805.79
241.549	18768.92
241.62	18729.84
241.692	18698.81
241.763	18659.72
241.835	18625.32
241.906	18584.69
241.978	18525.18
242.049	18506.91
242.121	18482.24
242.192	18467.49
242.264	18424.12
242.335	18371.55
242.407	18353.19
242.478	18326.01
242.55	18284.95
242.621	18237.62
242.693	18195.7
242.764	18146.26
242.836	18102.74
242.907	18065.44
242.979	18037.15
243.05	17996.24
243.122	17973.44
243.193	17931.81
243.264	17879.95
243.336	17836.87
243.407	17817.11
243.479	17798.27
243.55	17760.63
243.622	17731.91
243.693	17684.25
243.764	17669.21
243.836	17623.33
243.907	17583.57
243.978	17543.96
244.05	17515.77
244.121	17459.72
244.192	17433.4
244.264	17384.15
244.335	17352.49
244.407	17294.17
244.478	17271.86
244.549	17232.39
244.62	17176.24
244.692	17150.08
244.763	17129.93
244.834	17089.98
244.906	17040.63
244.977	17015.04
245.048	16998.51
245.119	16952.96
245.191	16913.39
245.262	16848.19
245.333	16832.33
245.405	16790.54
245.476	16757.68
245.547	16728.42
245.618	16715.41
245.689	16686.06
245.761	16658.73
245.832	16623.26
245.903	16599.79
245.974	16569.76
246.045	16530.34
246.117	16517.56
246.188	16464.84
246.259	16416.01
246.33	16378.95
246.401	16344.29
246.473	16287.47
246.544	16234.26
246.615	16210.16
246.686	16162.01
246.757	16153.24
246.828	16109.28
246.899	16102.63
246.97	16055.2
247.042	16014.14
247.113	15988.4
247.184	15967.67
247.255	15921.31
247.326	15894.56
247.397	15861.54
247.468	15822.64
247.539	15795.55
247.61	15744.61
247.681	15723.06
247.752	15706.77
247.823	15668.55
247.894	15640.06
247.965	15607.19
248.037	15577.78
248.108	15522.11
248.179	15499.41
248.25	15464.42
248.321	15442.29
248.392	15395.83
248.463	15393.85
248.534	15354.08
248.605	15321.98
248.675	15283.28
248.746	15267.61
248.817	15234.64
248.888	15216.32
248.959	15168.8
249.03	15149.61
249.101	15129.66
249.172	15094.42
249.243	15044.14
249.314	15032.14
249.385	15005.48
249.456	14980.08
249.527	14948.94
249.598	14934.77
249.669	14908.69
249.739	14881.17
249.81	14852.68
249.881	14800.28
249.952	14774.44
250.023	14747.93
250.094	14709.9
250.165	14673.31
250.235	14645.5
250.306	14621.15
250.377	14577.53
250.448	14554.44
250.519	14499.05
250.59	14484.97
250.66	14454.65
250.731	14441.49
250.802	14408.33
250.873	14385.96
250.944	14365.86
251.014	14332.16
251.085	14332.02
251.156	14308.83
251.227	14296.35
251.297	14287.77
251.368	14278.66
251.439	14258.17
251.51	14242.21
251.58	14200.9
251.651	14177.33
251.722	14154.14
251.792	14107.86
251.863	14078.99
251.934	14074.46
252.005	14082.31
252.075	14049.05
252.146	14037.96
252.217	14024.51
252.287	14012.22
252.358	13987.11
252.429	13980.89
252.499	13943.43
252.57	13920.97
252.641	13904.63
252.711	13873.1
252.782	13826.97
252.852	13823.78
252.923	13791.29
252.994	13773.41
253.064	13771.34
253.135	13735.23
253.205	13711.41
253.276	13713.63
253.347	13706.5
253.417	13673.14
253.488	13648.55
253.558	13628.02
253.629	13604.3
253.699	13588.15
253.77	13566.41
253.841	13533.92
253.911	13510.44
253.982	13495.11
254.052	13471.25
254.123	13453.41
254.193	13440.11
254.264	13461.08
254.334	13421.36
254.405	13388.91
254.475	13353.43
254.546	13323.74
254.616	13319.16
254.687	13298.24
254.757	13276.35
254.827	13257.21
254.898	13235.62
254.968	13210.69
255.039	13182.73
255.109	13168.56
255.18	13133.56
255.25	13094.18
255.321	13073.35
255.391	13040.09
255.461	13049.59
255.532	13005.53
255.602	12971.88
255.673	12925.55
255.743	12894.65
255.813	12853.29
255.884	12842.35
255.954	12825.96
256.024	12822.44
256.095	12798.97
256.165	12769.7
256.235	12756.74
256.306	12728.34
256.376	12719.81
256.446	12709.5
256.517	12689.06
256.587	12676.04
256.657	12657.24
256.728	12639.16
256.798	12625.57
256.868	12598.91
256.938	12559.48
257.009	12546.32
257.079	12537.31
257.149	12540.3
257.219	12491.13
257.29	12484.91
257.36	12439.69
257.43	12432.95
257.5	12387.88
257.571	12361.75
257.641	12349.07
257.711	12315.38
257.781	12297.49
257.852	12281.78
257.922	12235.21
257.992	12216.03
258.062	12200.6
258.132	12187.16
258.202	12162.96
258.273	12149.61
258.343	12152.64
258.413	12130.9
258.483	12109.21
258.553	12082.17
258.623	12057.4
258.693	12050.36
258.764	12040.86
258.834	12044.09
258.904	12025.29
258.974	12000.71
259.044	11982.97
259.114	11961.86
259.184	11946.58
259.254	11928.41
259.324	11888.45
259.394	11881.08
259.464	11884.55
259.535	11855.72
259.605	11834.03
259.675	11815.77
259.745	11801.21
259.815	11768.34
259.885	11738.6
259.955	11757.88
260.025	11723.32
260.095	11699.08
260.165	11687.32
260.235	11686.11
260.305	11660.76
260.375	11630.78
260.445	11640.81
260.515	11642.01
260.585	11642.25
260.655	11620.23
260.725	11617.14
260.795	11606.35
260.865	11611.12
260.934	11587.07
261.004	11580.12
261.074	11561.52
261.144	11558.34
261.214	11546.82
261.284	11532.22
261.354	11528.31
261.424	11494.57
261.494	11509.32
261.564	11496.21
261.634	11478.76
261.703	11435.97
261.773	11422.52
