Data from 20250703_urea_0.1M_MAYP1162681_14-11-04-874.txt Node
Date: Thu Jul 03 14:11:04 BST 2025
User: adleo
Spectrometer: MAYP116268
Trigger mode: 0
Integration Time (sec): 1.000000E0
Scans to average: 1
Electric dark correction enabled: true
Nonlinearity correction enabled: true
Boxcar width: 10
XAxis mode: Wavelengths
Number of Pixels in Spectrum: 2068
>>>>>Begin Spectral Data<<<<<
179.565	1253.58
179.642	1312.77
179.718	1358.87
179.795	1400.94
179.871	1433.41
179.948	1451.41
180.024	1473.8
180.101	1496.7
180.177	1511.41
180.254	1536.34
180.33	1560.78
180.407	1618.57
180.483	1715.82
180.56	1809.04
180.636	1895.26
180.712	1883.27
180.789	1891.88
180.865	1906.38
180.942	1915.12
181.018	1925.82
181.095	1942.23
181.171	1947.17
181.248	1945.75
181.324	1960.82
181.4	1965.91
181.477	1977.04
181.553	1991.06
181.63	2009.99
181.706	2027.73
181.782	2036.48
181.859	2032.91
181.935	2034.57
182.011	2028.11
182.088	2047.13
182.164	2067.73
182.24	2082.38
182.317	2090.65
182.393	2092.27
182.469	2103.78
182.546	2117.76
182.622	2124.23
182.698	2118.57
182.775	2129.13
182.851	2144.21
182.927	2136.41
183.003	2131.75
183.08	2125.9
183.156	2135.22
183.232	2134.94
183.308	2121.09
183.385	2132.56
183.461	2153.68
183.537	2156.87
183.613	2172.37
183.69	2161.72
183.766	2152.58
183.842	2159.81
183.918	2164.28
183.995	2176.89
184.071	2180.65
184.147	2173.61
184.223	2159.91
184.299	2170.57
184.375	2158.39
184.452	2166.48
184.528	2217.4
184.604	2230.15
184.68	2244.42
184.756	2251.36
184.832	2253.65
184.908	2258.83
184.985	2255.22
185.061	2238.47
185.137	2248.51
185.213	2237.04
185.289	2239.23
185.365	2231.91
185.441	2231.38
185.517	2248.23
185.593	2244.24
185.669	2244.19
185.745	2256.99
185.822	2273.68
185.898	2265.73
185.974	2276.48
186.05	2268.82
186.126	2234.8
186.202	2227.38
186.278	2223.9
186.354	2214.1
186.43	2222.24
186.506	2220.96
186.582	2218.58
186.658	2224.81
186.734	2204.02
186.81	2204.88
186.886	2206.87
186.962	2219.77
187.038	2215.87
187.114	2205.82
187.19	2214.2
187.266	2203.54
187.341	2205.21
187.417	2196.69
187.493	2195.22
187.569	2198.83
187.645	2191.03
187.721	2179.13
187.797	2186.27
187.873	2187.55
187.949	2182.46
188.025	2175.56
188.101	2179.13
188.176	2190.93
188.252	2187.79
188.328	2195.21
188.404	2196.06
188.48	2193.35
188.556	2184.17
188.632	2184.83
188.707	2186.55
188.783	2179.79
188.859	2173.08
188.935	2160
189.011	2171.89
189.086	2166.13
189.162	2159
189.238	2157.86
189.314	2157.67
189.39	2151.29
189.465	2145.3
189.541	2161.28
189.617	2141.16
189.693	2135.36
189.768	2133.98
189.844	2155.3
189.92	2148.22
189.996	2156.16
190.071	2166.53
190.147	2164.01
190.223	2173.06
190.298	2164.39
190.374	2155.45
190.45	2168.53
190.526	2178.29
190.601	2170.1
190.677	2172.48
190.753	2196.57
190.828	2199.09
190.904	2211.65
190.98	2227.31
191.055	2238.4
191.131	2229.88
191.207	2259.28
191.282	2270.65
191.358	2260.75
191.433	2247.71
191.509	2261.64
191.585	2262.6
191.66	2265.74
191.736	2276.06
191.811	2265.78
191.887	2282.11
191.963	2305.33
192.038	2312.23
192.114	2309.76
192.189	2314.09
192.265	2309.71
192.34	2289.62
192.416	2291.71
192.491	2287.43
192.567	2289.71
192.642	2294.33
192.718	2294.09
192.793	2277.29
192.869	2275.25
192.944	2279.2
193.02	2287.1
193.095	2289.19
193.171	2292.62
193.246	2291.14
193.322	2290.38
193.397	2288.05
193.473	2275.67
193.548	2256.35
193.624	2261.25
193.699	2261.06
193.775	2278.49
193.85	2280.72
193.925	2291
194.001	2287.1
194.076	2277.58
194.152	2267.16
194.227	2256.55
194.302	2247.37
194.378	2251.98
194.453	2244.51
194.529	2256.17
194.604	2241.75
194.679	2238.61
194.755	2219.58
194.83	2231.25
194.905	2223.83
194.981	2235.58
195.056	2227.59
195.131	2236.53
195.207	2232.63
195.282	2222.45
195.357	2202.98
195.433	2221.3
195.508	2208.68
195.583	2217.68
195.659	2232.86
195.734	2240.81
195.809	2241.47
195.884	2250.7
195.96	2253.56
196.035	2271.64
196.11	2267.07
196.185	2276.92
196.261	2279.72
196.336	2310.75
196.411	2296.42
196.486	2306.99
196.561	2302.18
196.637	2311.84
196.712	2326.74
196.787	2331.36
196.862	2348.54
196.937	2356.53
197.013	2361.01
197.088	2368.81
197.163	2392.1
197.238	2412.34
197.313	2411.44
197.388	2424.1
197.464	2454.15
197.539	2463
197.614	2457
197.689	2473.05
197.764	2490.38
197.839	2507.43
197.914	2503.86
197.989	2527.1
198.065	2536.43
198.14	2588.66
198.215	2613.18
198.29	2625.67
198.365	2640.81
198.44	2652.96
198.515	2684.21
198.59	2698.69
198.665	2728.56
198.74	2736.14
198.815	2737.09
198.89	2762.48
198.965	2795.94
199.04	2792.7
199.115	2810.28
199.19	2853.3
199.265	2855.12
199.34	2866.84
199.415	2907.04
199.49	2927.76
199.565	2937.3
199.64	2964.89
199.715	2960.69
199.79	2968.7
199.865	2972.13
199.94	2969.51
200.015	3001.46
200.09	3004.51
200.165	3012.52
200.24	3017.86
200.315	3060.05
200.39	3073.35
200.464	3080.88
200.539	3083.27
200.614	3100.1
200.689	3123.75
200.764	3129.14
200.839	3149.88
200.914	3155.84
200.989	3143.53
201.063	3160.6
201.138	3143.07
201.213	3140.44
201.288	3122.65
201.363	3130.33
201.438	3134.34
201.512	3151.93
201.587	3135.52
201.662	3140.76
201.737	3153.83
201.812	3162.18
201.886	3126.81
201.961	3138.6
202.036	3123.58
202.111	3120
202.186	3090.12
202.26	3072.76
202.335	3053.11
202.41	3044.67
202.485	3030.28
202.559	3010.59
202.634	2983.36
202.709	2998.61
202.784	2986.35
202.858	2991.26
202.933	2975.91
203.008	2975.34
203.082	2960.8
203.157	2967.81
203.232	2931.07
203.306	2919.38
203.381	2895.02
203.456	2882.72
203.53	2871.51
203.605	2866.55
203.68	2853.63
203.754	2867.06
203.829	2868.59
203.904	2867.25
203.978	2873.59
204.053	2901.01
204.127	2912.79
204.202	2936.29
204.277	2943.3
204.351	2967
204.426	2989.52
204.5	3017.13
204.575	3018.23
204.65	3064.75
204.724	3093.92
204.799	3148.98
204.873	3188.31
204.948	3237.88
205.022	3276.91
205.097	3324.23
205.171	3391.9
205.246	3464.69
205.32	3526.21
205.395	3591.83
205.469	3653.08
205.544	3735.56
205.618	3787.01
205.693	3880.35
205.767	3952.76
205.842	4060.04
205.916	4142.85
205.991	4225.16
206.065	4327.15
206.14	4440.47
206.214	4537.55
206.289	4635.4
206.363	4759.54
206.438	4869.59
206.512	4991.67
206.586	5124.38
206.661	5252.6
206.735	5356.31
206.81	5483.44
206.884	5632.92
206.958	5756.63
207.033	5914.49
207.107	6057.47
207.181	6241.95
207.256	6379.92
207.33	6550.68
207.405	6716.43
207.479	6894.87
207.553	7056.93
207.628	7197.69
207.702	7372.89
207.776	7528.28
207.851	7694.42
207.925	7871.16
207.999	8044.43
208.073	8215.47
208.148	8401.89
208.222	8567.86
208.296	8779.89
208.371	8978.13
208.445	9167.8
208.519	9377.73
208.593	9569.9
208.668	9751.21
208.742	9935.17
208.816	10121.21
208.89	10321.57
208.965	10510.05
209.039	10700.17
209.113	10908.79
209.187	11116.44
209.261	11304.56
209.336	11520.88
209.41	11729.98
209.484	11922.57
209.558	12127.3
209.632	12327.42
209.707	12528.61
209.781	12739.34
209.855	12943.71
209.929	13140.87
210.003	13331.95
210.077	13514.88
210.151	13748.14
210.226	13971.85
210.3	14185.39
210.374	14392.47
210.448	14572.08
210.522	14752.75
210.596	14941.46
210.67	15138.17
210.744	15363.95
210.818	15568.52
210.892	15762.57
210.966	15935.32
211.041	16125.9
211.115	16302.41
211.189	16489.99
211.263	16671.46
211.337	16846.46
211.411	17024.44
211.485	17194.33
211.559	17364.99
211.633	17534.68
211.707	17667.11
211.781	17830.34
211.855	17962.58
211.929	18110.82
212.003	18254.38
212.077	18418.28
212.151	18578.95
212.225	18728.49
212.299	18866.65
212.373	19002.26
212.447	19138.73
212.52	19316.46
212.594	19462.82
212.668	19616.4
212.742	19743.39
212.816	19870.18
212.89	19997.5
212.964	20129.5
213.038	20251.48
213.112	20403.77
213.186	20549.99
213.26	20656.3
213.333	20741.41
213.407	20856.65
213.481	20980.8
213.555	21100.75
213.629	21209.2
213.703	21315.23
213.777	21430.29
213.85	21527.6
213.924	21677.03
213.998	21791.81
214.072	21893.96
214.146	21981.74
214.219	22072.94
214.293	22181.01
214.367	22290.25
214.441	22405.23
214.515	22495.91
214.588	22577.09
214.662	22629.21
214.736	22690.82
214.81	22790.96
214.883	22880.14
214.957	22957.81
215.031	23042.24
215.105	23109.2
215.178	23186.25
215.252	23263.69
215.326	23314.32
215.4	23367.56
215.473	23393.74
215.547	23450.89
215.621	23510.41
215.694	23596.98
215.768	23650.94
215.842	23705.96
215.915	23760.08
215.989	23795.77
216.063	23852.68
216.136	23913.6
216.21	23977.21
216.284	24055.01
216.357	24115.26
216.431	24169.47
216.504	24234.68
216.578	24302.27
216.652	24380.55
216.725	24442.3
216.799	24502.46
216.873	24561.36
216.946	24620.98
217.02	24669.37
217.093	24702.8
217.167	24721.56
217.24	24747.28
217.314	24797.45
217.387	24837.3
217.461	24882.03
217.535	24950.31
217.608	24979.02
217.682	25019.5
217.755	25086.57
217.829	25119.58
217.902	25163.15
217.976	25211.69
218.049	25239.25
218.123	25267.86
218.196	25311.93
218.27	25339.63
218.343	25354.49
218.417	25395.95
218.49	25433.2
218.563	25487.88
218.637	25549.95
218.71	25616.31
218.784	25662.45
218.857	25701.83
218.931	25735.04
219.004	25765.49
219.077	25791.71
219.151	25829.69
219.224	25871.97
219.298	25884.52
219.371	25922.18
219.444	25923.82
219.518	25953.94
219.591	25988.21
219.665	26036.1
219.738	26045.56
219.811	26063.9
219.885	26099.77
219.958	26124.82
220.031	26150.26
220.105	26167.74
220.178	26178.99
220.251	26185.94
220.325	26204.34
220.398	26220.37
220.471	26248.94
220.544	26275.98
220.618	26280.91
220.691	26299.49
220.764	26314.41
220.838	26341.69
220.911	26357.77
220.984	26398.61
221.057	26410.83
221.131	26426.37
221.204	26403.44
221.277	26437.33
221.35	26478.09
221.424	26492.81
221.497	26495.47
221.57	26501.55
221.643	26521.35
221.716	26544.14
221.79	26547.28
221.863	26549.21
221.936	26557.86
222.009	26564.23
222.082	26560.9
222.155	26560.61
222.229	26580.84
222.302	26569.98
222.375	26569.3
222.448	26569.4
222.521	26564.47
222.594	26561.77
222.667	26536.08
222.74	26551.44
222.814	26546.71
222.887	26532.22
222.96	26527.82
223.033	26535.11
223.106	26542.02
223.179	26535.45
223.252	26518.6
223.325	26501.65
223.398	26497.31
223.471	26495.18
223.544	26490.21
223.617	26485.48
223.69	26488.42
223.763	26465.73
223.837	26460.56
223.91	26451.1
223.983	26421.6
224.056	26398.04
224.129	26392.53
224.202	26402.77
224.275	26380.03
224.348	26362.07
224.42	26319.68
224.493	26284.43
224.566	26270.58
224.639	26248.13
224.712	26218.96
224.785	26197.29
224.858	26188.69
224.931	26160.93
225.004	26129.65
225.077	26111.93
225.15	26067.72
225.223	26040.25
225.296	26036.77
225.369	25998.3
225.442	25976.14
225.514	25960.6
225.587	25947.76
225.66	25922.07
225.733	25902.28
225.806	25879.02
225.879	25848.61
225.952	25814.24
226.025	25808.5
226.097	25781.37
226.17	25756.03
226.243	25716.6
226.316	25683.97
226.389	25653.37
226.461	25643.38
226.534	25624.65
226.607	25594
226.68	25591.2
226.753	25563.36
226.825	25507.99
226.898	25500.22
226.971	25468.56
227.044	25440.81
227.117	25405.15
227.189	25383.29
227.262	25358.92
227.335	25338.6
227.407	25297.97
227.48	25289.86
227.553	25263.32
227.626	25245.8
227.698	25218.25
227.771	25188.81
227.844	25148.48
227.916	25128.26
227.989	25072.43
228.062	25032.19
228.134	25016.31
228.207	24982.24
228.28	24947.07
228.352	24926.85
228.425	24904.37
228.498	24883.09
228.57	24853.56
228.643	24842.95
228.716	24808.21
228.788	24772.89
228.861	24738.88
228.934	24730.29
229.006	24696.61
229.079	24654.4
229.151	24602.49
229.224	24558.01
229.296	24539.97
229.369	24541.08
229.442	24538.42
229.514	24504.32
229.587	24490.09
229.659	24449.52
229.732	24422.89
229.804	24409.04
229.877	24409.38
229.949	24382.13
230.022	24363.89
230.094	24330.99
230.167	24293.9
230.239	24259.22
230.312	24228.39
230.384	24220.34
230.457	24185.99
230.529	24161.44
230.602	24144.47
230.674	24125.22
230.747	24099.66
230.819	24079.16
230.892	24023.31
230.964	23978.54
231.037	23970.3
231.109	23943.14
231.181	23912.95
231.254	23870.51
231.326	23825.51
231.399	23771.49
231.471	23730.4
231.544	23669
231.616	23643.25
231.688	23614.07
231.761	23573.62
231.833	23539.38
231.905	23489.32
231.978	23456.43
232.05	23419.3
232.122	23388.72
232.195	23345.28
232.267	23336.64
232.339	23293.82
232.412	23279.26
232.484	23239.19
232.556	23193.23
232.629	23173.8
232.701	23151.57
232.773	23124.67
232.846	23087.97
232.918	23057.59
232.99	23027.17
233.062	23000.46
233.135	22976.11
233.207	22932.43
233.279	22908.27
233.351	22875.1
233.424	22835.08
233.496	22792.17
233.568	22768.41
233.64	22714.41
233.713	22691.41
233.785	22652.41
233.857	22625.45
233.929	22574.69
234.001	22547.83
234.074	22524.36
234.146	22463.42
234.218	22421.18
234.29	22385.03
234.362	22338.75
234.434	22276.51
234.507	22227.34
234.579	22178.85
234.651	22127.85
234.723	22099.5
234.795	22071.83
234.867	22040.83
234.939	22016.64
235.012	21977.16
235.084	21949.82
235.156	21919.84
235.228	21863.4
235.3	21807.58
235.372	21759.23
235.444	21722.07
235.516	21674.39
235.588	21632.8
235.66	21598.81
235.732	21543.19
235.804	21556.5
235.876	21532.01
235.948	21521.45
236.02	21489.35
236.092	21448.15
236.164	21415.85
236.236	21375.85
236.308	21319.36
236.38	21273.09
236.452	21219.49
236.524	21186.38
236.596	21161.08
236.668	21123.48
236.74	21085.99
236.812	21058.18
236.884	21032.35
236.956	21005.4
237.028	20955.28
237.1	20909.01
237.172	20882.75
237.244	20869.3
237.316	20801.53
237.388	20753.43
237.46	20699.02
237.532	20669.91
237.604	20616.52
237.675	20587.84
237.747	20554.87
237.819	20511.26
237.891	20477.14
237.963	20432.47
238.035	20379.31
238.107	20303.12
238.178	20278.78
238.25	20230.15
238.322	20212.56
238.394	20158.73
238.466	20110.78
238.538	20076.23
238.609	20040.71
238.681	19977.92
238.753	19925.25
238.825	19873.82
238.897	19837.83
238.968	19811.51
239.04	19760.29
239.112	19760.82
239.184	19706.89
239.255	19653.4
239.327	19619.14
239.399	19569.21
239.471	19533.07
239.542	19506.81
239.614	19489.46
239.686	19421.08
239.758	19400.21
239.829	19346.24
239.901	19316.26
239.973	19278.19
240.044	19242.53
240.116	19207.5
240.188	19174.49
240.259	19129.91
240.331	19077.05
240.403	19045.19
240.474	18992.18
240.546	18944.48
240.618	18879.04
240.689	18827.57
240.761	18795.14
240.833	18770.32
240.904	18737.94
240.976	18703.77
241.048	18668.49
241.119	18633.56
241.191	18609.46
241.262	18585.41
241.334	18538.48
241.405	18489.95
241.477	18442.43
241.549	18404.89
241.62	18362.25
241.692	18337.57
241.763	18310.78
241.835	18289.67
241.906	18254.49
241.978	18211.75
242.049	18187.17
242.121	18160.47
242.192	18137.92
242.264	18081.58
242.335	18021.15
242.407	17982.74
242.478	17942.12
242.55	17902.79
242.621	17849.78
242.693	17806.22
242.764	17761.74
242.836	17720.2
242.907	17696
242.979	17662.61
243.05	17617.45
243.122	17588.15
243.193	17536.78
243.264	17486.37
243.336	17444.01
243.407	17421.45
243.479	17395.67
243.55	17367.33
243.622	17334.08
243.693	17304.06
243.764	17294.85
243.836	17255.67
243.907	17221.31
243.978	17187.96
244.05	17150.7
244.121	17107.81
244.192	17078.46
244.264	17031.71
244.335	16999.81
244.407	16945.49
244.478	16917.73
244.549	16886.84
244.62	16832.09
244.692	16793
244.763	16765.39
244.834	16719.02
244.906	16663.45
244.977	16631.21
245.048	16599.45
245.119	16558.15
245.191	16514.67
245.262	16449.37
245.333	16430.71
245.405	16396.98
245.476	16365.21
245.547	16340.01
245.618	16309.74
245.689	16287.52
245.761	16250.55
245.832	16206.6
245.903	16179.7
245.974	16146.3
246.045	16109.57
246.117	16100.13
246.188	16064.84
246.259	16012.5
246.33	15973.8
246.401	15933.69
246.473	15884.05
246.544	15844.91
246.615	15818.16
246.686	15784.18
246.757	15771.84
246.828	15730.2
246.899	15714.87
246.97	15665.46
247.042	15616.83
247.113	15589.74
247.184	15568.82
247.255	15538.84
247.326	15513.58
247.397	15481.58
247.468	15447.74
247.539	15417.42
247.61	15370.18
247.681	15342.85
247.752	15327.62
247.823	15289.4
247.894	15270.93
247.965	15235.36
248.037	15199.55
248.108	15155.49
248.179	15124.59
248.25	15089.45
248.321	15071.86
248.392	15022.02
248.463	15015.36
248.534	14988.66
248.605	14962.34
248.675	14924.12
248.746	14897.7
248.817	14881.22
248.888	14859.62
248.959	14808.81
249.03	14781.39
249.101	14753.48
249.172	14720.36
249.243	14672.2
249.314	14663.91
249.385	14637.83
249.456	14619.42
249.527	14589.29
249.598	14575.21
249.669	14542.87
249.739	14516.02
249.81	14489.89
249.881	14446.02
249.952	14409.97
250.023	14380.22
250.094	14344.36
250.165	14309.99
250.235	14272.87
250.306	14247.13
250.377	14204.23
250.448	14187.69
250.519	14147.1
250.59	14132.21
250.66	14105.21
250.731	14094.51
250.802	14058.64
250.873	14026.97
250.944	14002
251.014	13965.32
251.085	13956.5
251.156	13935.86
251.227	13928.3
251.297	13906.36
251.368	13907.13
251.439	13892.29
251.51	13884.62
251.58	13852.13
251.651	13816.31
251.722	13811.78
251.792	13762.13
251.863	13735.04
251.934	13722.5
252.005	13718.4
252.075	13683.41
252.146	13662
252.217	13651.4
252.287	13637.18
252.358	13615.72
252.429	13604.2
252.499	13580.2
252.57	13554.31
252.641	13537.29
252.711	13510.63
252.782	13480.36
252.852	13470.14
252.923	13446.57
252.994	13425.36
253.064	13411.28
253.135	13386.55
253.205	13361.19
253.276	13358.35
253.347	13356.42
253.417	13325.95
253.488	13299.92
253.558	13281.6
253.629	13255.04
253.699	13234.84
253.77	13222.55
253.841	13192.23
253.911	13168.03
253.982	13148.84
254.052	13130.48
254.123	13112.79
254.193	13086.85
254.264	13103.05
254.334	13067.38
254.405	13037.34
254.475	13004.61
254.546	12975.98
254.616	12967.01
254.687	12942.14
254.757	12925.75
254.827	12901.79
254.898	12883.04
254.968	12858.84
255.039	12822.97
255.109	12817.77
255.18	12783.73
255.25	12733.89
255.321	12725.36
255.391	12693.59
255.461	12696.48
255.532	12659.89
255.602	12634.01
255.673	12593.71
255.743	12557.84
255.813	12516.87
255.884	12504.43
255.954	12483.03
256.024	12485.87
256.095	12464.13
256.165	12429.67
256.235	12411.98
256.306	12389.56
256.376	12383.68
256.446	12374.86
256.517	12371.58
256.587	12357.12
256.657	12338.9
256.728	12327.86
256.798	12306.27
256.868	12286.12
256.938	12249.43
257.009	12231.65
257.079	12215.6
257.149	12225.57
257.219	12186.67
257.29	12174.96
257.36	12136.45
257.43	12129.89
257.5	12080.44
257.571	12051.66
257.641	12047.66
257.711	12017.63
257.781	11992.04
257.852	11979.89
257.922	11943.21
257.992	11918.82
258.062	11904.16
258.132	11893.22
258.202	11878.43
258.273	11863.92
258.343	11864.59
258.413	11845.75
258.483	11824.83
258.553	11794.03
258.623	11763.81
258.693	11746.94
258.764	11737.73
258.834	11733.05
258.904	11715.94
258.974	11688.71
259.044	11677.24
259.114	11658.83
259.184	11639.5
259.254	11618.54
259.324	11579.06
259.394	11566.48
259.464	11561.42
259.535	11534.53
259.605	11516.21
259.675	11485.08
259.745	11468.84
259.815	11434.57
259.885	11409.99
259.955	11422.67
260.025	11399.1
260.095	11380.01
260.165	11371.77
260.235	11375.58
260.305	11350.13
260.375	11322.42
260.445	11333.75
260.515	11324.44
260.585	11317.5
260.655	11302.32
260.725	11297.74
260.795	11283.67
260.865	11282.27
260.934	11257.26
261.004	11248.63
261.074	11221.94
261.144	11225.12
261.214	11214.18
261.284	11198.61
261.354	11189.21
261.424	11161.11
261.494	11162.56
261.564	11143.77
261.634	11129.02
261.703	11083.24
261.773	11075.04
261.843	11065.02
261.913	11046.61
