Data from 20250703_urea_0.1M_MAYP1162681_18-11-05-684.txt Node
Date: Thu Jul 03 18:11:05 BST 2025
User: adleo
Spectrometer: MAYP116268
Trigger mode: 0
Integration Time (sec): 1.000000E0
Scans to average: 1
Electric dark correction enabled: true
Nonlinearity correction enabled: true
Boxcar width: 10
XAxis mode: Wavelengths
Number of Pixels in Spectrum: 2068
>>>>>Begin Spectral Data<<<<<
179.565	1351.88
179.642	1416.03
179.718	1464.24
179.795	1512.06
179.871	1544.51
179.948	1564.42
180.024	1586.74
180.101	1612.69
180.177	1629.86
180.254	1658.5
180.33	1684.12
180.407	1748.81
180.483	1853.33
180.56	1954.26
180.636	2048.94
180.712	2037.52
180.789	2049.22
180.865	2061.39
180.942	2070.38
181.018	2082.84
181.095	2099.26
181.171	2101.78
181.248	2101.11
181.324	2118.91
181.4	2125
181.477	2140.98
181.553	2156.63
181.63	2179.61
181.706	2194.6
181.782	2203.35
181.859	2200.35
181.935	2202.39
182.011	2198.45
182.088	2218.43
182.164	2238.66
182.24	2252.65
182.317	2263.49
182.393	2259.4
182.469	2272.72
182.546	2288.24
182.622	2291.57
182.698	2286.33
182.775	2300.28
182.851	2313.93
182.927	2305.89
183.003	2300.66
183.08	2293.66
183.156	2302.08
183.232	2299.23
183.308	2289.09
183.385	2297.09
183.461	2316.17
183.537	2321.22
183.613	2337.02
183.69	2328.07
183.766	2318.12
183.842	2326.35
183.918	2330.45
183.995	2345.44
184.071	2353.1
184.147	2347.82
184.223	2336.45
184.299	2349.25
184.375	2336.78
184.452	2343.4
184.528	2399.07
184.604	2408.11
184.68	2418.77
184.756	2427.24
184.832	2432.19
184.908	2440.85
184.985	2440.95
185.061	2422.48
185.137	2433.15
185.213	2421.06
185.289	2420.3
185.365	2412.11
185.441	2411.78
185.517	2425.35
185.593	2422.4
185.669	2417.11
185.745	2428.49
185.822	2444.15
185.898	2436.19
185.974	2445.47
186.05	2438.95
186.126	2399.47
186.202	2395.48
186.278	2394.38
186.354	2384.33
186.43	2392.1
186.506	2386.72
186.582	2387.43
186.658	2394.67
186.734	2370.11
186.81	2372.54
186.886	2377.53
186.962	2389.15
187.038	2385
187.114	2377.53
187.19	2385.33
187.266	2375.72
187.341	2373.72
187.417	2365.25
187.493	2363.63
187.569	2369.15
187.645	2361.73
187.721	2349.4
187.797	2360.77
187.873	2365.34
187.949	2360.87
188.025	2353.63
188.101	2355.44
188.176	2359.87
188.252	2356.15
188.328	2363.58
188.404	2361.39
188.48	2357.91
188.556	2352.1
188.632	2353.87
188.707	2353.44
188.783	2349.77
188.859	2346.58
188.935	2334.35
189.011	2343.06
189.086	2336.25
189.162	2326.02
189.238	2323.83
189.314	2321.12
189.39	2312.03
189.465	2302.17
189.541	2317.88
189.617	2298.89
189.693	2296.56
189.768	2300.89
189.844	2326.61
189.92	2319.14
189.996	2332.33
190.071	2340.27
190.147	2338.8
190.223	2346.56
190.298	2338.94
190.374	2324.95
190.45	2336.47
190.526	2347.03
190.601	2342.42
190.677	2345.37
190.753	2372.75
190.828	2379.27
190.904	2394.93
190.98	2409.5
191.055	2424.74
191.131	2415.83
191.207	2441.96
191.282	2451.72
191.358	2440.92
191.433	2424.96
191.509	2439.14
191.585	2435.33
191.66	2438.76
191.736	2445.37
191.811	2434.76
191.887	2454.38
191.963	2481.42
192.038	2485.61
192.114	2485.99
192.189	2492.89
192.265	2488.9
192.34	2464.65
192.416	2464.18
192.491	2459.08
192.567	2463.89
192.642	2463.32
192.718	2464.32
192.793	2450.27
192.869	2446.28
192.944	2447.37
193.02	2459.66
193.095	2467.28
193.171	2471.85
193.246	2471.18
193.322	2471.04
193.397	2470.7
193.473	2453.75
193.548	2434.7
193.624	2442.46
193.699	2442.08
193.775	2457.28
193.85	2458.32
193.925	2473.42
194.001	2472.23
194.076	2467.09
194.152	2455.75
194.227	2447.7
194.302	2436.61
194.378	2443.9
194.453	2441.09
194.529	2454.47
194.604	2436.94
194.679	2430.09
194.755	2410
194.83	2420.29
194.905	2419.62
194.981	2430.43
195.056	2426.24
195.131	2432.81
195.207	2430.48
195.282	2422.29
195.357	2399.81
195.433	2415.95
195.508	2400.33
195.583	2408.33
195.659	2422.14
195.734	2427.95
195.809	2429.57
195.884	2440.56
195.96	2438.75
196.035	2455.51
196.11	2452.61
196.185	2465.41
196.261	2467.18
196.336	2500.84
196.411	2486.27
196.486	2489.36
196.561	2483.98
196.637	2489.64
196.712	2509.56
196.787	2512.03
196.862	2528.6
196.937	2542.51
197.013	2550.65
197.088	2562.94
197.163	2589.95
197.238	2609.26
197.313	2609.21
197.388	2623.74
197.464	2655.75
197.539	2666.52
197.614	2660.56
197.689	2675.67
197.764	2694.92
197.839	2716.73
197.914	2707.68
197.989	2732.22
198.065	2747.7
198.14	2801.1
198.215	2829.26
198.29	2837.84
198.365	2851.46
198.44	2863.66
198.515	2893.26
198.59	2911.24
198.665	2940.41
198.74	2945.32
198.815	2944.13
198.89	2970.2
198.965	3004.2
199.04	3001.15
199.115	3019.36
199.19	3063.46
199.265	3066.27
199.34	3077
199.415	3116.22
199.49	3142.91
199.565	3155.6
199.64	3184.83
199.715	3185.6
199.79	3193.75
199.865	3200.81
199.94	3202.05
200.015	3235.4
200.09	3243.42
200.165	3249.71
200.24	3256.15
200.315	3300.8
200.39	3316.83
200.464	3323.03
200.539	3324.46
200.614	3340.44
200.689	3366.74
200.764	3375.28
200.839	3396.84
200.914	3401.56
200.989	3387.53
201.063	3402.46
201.138	3384.49
201.213	3384.63
201.288	3361.96
201.363	3370.07
201.438	3373.65
201.512	3390.06
201.587	3370.3
201.662	3370.35
201.737	3385.05
201.812	3396.93
201.886	3361.26
201.961	3375.82
202.036	3363.56
202.111	3357.69
202.186	3328.03
202.26	3311.13
202.335	3284.84
202.41	3278.69
202.485	3261.09
202.559	3241.91
202.634	3214.05
202.709	3225.97
202.784	3206.55
202.858	3209.18
202.933	3192.15
203.008	3187.47
203.082	3176.02
203.157	3179.74
203.232	3141.89
203.306	3125.38
203.381	3093.75
203.456	3079.15
203.53	3064.87
203.605	3054.34
203.68	3042.6
203.754	3047.8
203.829	3044.17
203.904	3038.78
203.978	3041.74
204.053	3064.59
204.127	3069.41
204.202	3090.35
204.277	3092.73
204.351	3110.24
204.426	3130.38
204.5	3150.51
204.575	3142.92
204.65	3182.3
204.724	3211.05
204.799	3255.63
204.873	3287.19
204.948	3325.74
205.022	3356.14
205.097	3388.53
205.171	3449.95
205.246	3510.19
205.32	3561.73
205.395	3613.89
205.469	3663.62
205.544	3727.7
205.618	3768.27
205.693	3849.79
205.767	3905.79
205.842	4004.56
205.916	4076.85
205.991	4141.64
206.065	4222.89
206.14	4326
206.214	4404.25
206.289	4481.98
206.363	4591.24
206.438	4691.79
206.512	4801.77
206.586	4923.62
206.661	5035.11
206.735	5122.42
206.81	5229.55
206.884	5360.74
206.958	5463.34
207.033	5601.41
207.107	5738.72
207.181	5904.02
207.256	6021.99
207.33	6165.34
207.405	6306.37
207.479	6451.48
207.553	6590.24
207.628	6708.47
207.702	6859.22
207.776	6997.9
207.851	7143.61
207.925	7298.86
207.999	7441.63
208.073	7583.63
208.148	7733.07
208.222	7869.88
208.296	8054.81
208.371	8221.42
208.445	8380.71
208.519	8566.51
208.593	8741.39
208.668	8891.58
208.742	9053.95
208.816	9215.92
208.89	9394.89
208.965	9557
209.039	9734.42
209.113	9915.64
209.187	10102.48
209.261	10256.56
209.336	10435.37
209.41	10617.48
209.484	10775.46
209.558	10956.92
209.632	11140.75
209.707	11314.61
209.781	11504.38
209.855	11676.72
209.929	11867.29
210.003	12036.27
210.077	12200.44
210.151	12406.79
210.226	12592.07
210.3	12774.67
210.374	12952.63
210.448	13110.93
210.522	13270.82
210.596	13426.91
210.67	13594.71
210.744	13801.7
210.818	13987.04
210.892	14172.05
210.966	14326.89
211.041	14499.65
211.115	14651.25
211.189	14825.51
211.263	14985.21
211.337	15137.72
211.411	15305.46
211.485	15438.4
211.559	15603.2
211.633	15738.94
211.707	15841.56
211.781	15999.98
211.855	16102.74
211.929	16235.77
212.003	16363.98
212.077	16519.03
212.151	16673.4
212.225	16809.99
212.299	16926.28
212.373	17051.64
212.447	17165.52
212.52	17322.01
212.594	17455.5
212.668	17589.53
212.742	17693.14
212.816	17812.47
212.89	17926.78
212.964	18042.25
213.038	18164.7
213.112	18286.48
213.186	18428.93
213.26	18528.3
213.333	18587.29
213.407	18708.82
213.481	18820.29
213.555	18935.13
213.629	19029.58
213.703	19122.44
213.777	19239.16
213.85	19335.44
213.924	19472.4
213.998	19581.46
214.072	19682.23
214.146	19763.72
214.219	19862.8
214.293	19955.71
214.367	20059.37
214.441	20164.57
214.515	20245.73
214.588	20309.78
214.662	20368.04
214.736	20432.04
214.81	20529.34
214.883	20629
214.957	20701.58
215.031	20776.33
215.105	20830.59
215.178	20882.11
215.252	20943.47
215.326	20987.23
215.4	21041.16
215.473	21067.72
215.547	21120.06
215.621	21173.13
215.694	21254.54
215.768	21285.19
215.842	21345.82
215.915	21393.97
215.989	21435.62
216.063	21496.5
216.136	21573.52
216.21	21639.37
216.284	21709.93
216.357	21774.81
216.431	21834.3
216.504	21899.37
216.578	21988.36
216.652	22064.76
216.725	22142.03
216.799	22216.99
216.873	22268.33
216.946	22325.21
217.02	22376.99
217.093	22428.18
217.167	22454.75
217.24	22485.26
217.314	22540.31
217.387	22579.12
217.461	22625.6
217.535	22685.14
217.608	22719.37
217.682	22757.7
217.755	22816.67
217.829	22850.9
217.902	22892.56
217.976	22935.37
218.049	22967.05
218.123	22995.88
218.196	23042.27
218.27	23065.46
218.343	23093.04
218.417	23145.79
218.49	23182.87
218.563	23244.89
218.637	23278.93
218.71	23350.11
218.784	23403.25
218.857	23463.91
218.931	23508.85
219.004	23547.14
219.077	23589.63
219.151	23628.83
219.224	23662.06
219.298	23692.59
219.371	23743.76
219.444	23767.58
219.518	23810.41
219.591	23855.84
219.665	23908.22
219.738	23945.07
219.811	23982.59
219.885	24023.01
219.958	24057.74
220.031	24088.27
220.105	24114.56
220.178	24165.25
220.251	24172.15
220.325	24211.22
220.398	24240.74
220.471	24268.14
220.544	24303.88
220.618	24325.01
220.691	24366.3
220.764	24406.44
220.838	24431.28
220.911	24444.88
220.984	24494.81
221.057	24524.1
221.131	24538.81
221.204	24531.62
221.277	24571.47
221.35	24619.13
221.424	24633.85
221.497	24656.96
221.57	24682.23
221.643	24705.73
221.716	24724.21
221.79	24745.68
221.863	24747.56
221.936	24763.62
222.009	24788.04
222.082	24809.99
222.155	24818.58
222.229	24835.22
222.302	24844.29
222.375	24864.27
222.448	24886.85
222.521	24890.56
222.594	24890.8
222.667	24892.88
222.74	24911.21
222.814	24909.28
222.887	24906.1
222.96	24928.44
223.033	24950
223.106	24957.39
223.179	24978.91
223.252	24975.14
223.325	24971.43
223.398	24979.92
223.471	24982.19
223.544	24978.86
223.617	24982.62
223.69	24983.49
223.763	24976.3
223.837	24978.18
223.91	24979.29
223.983	24962.26
224.056	24945.18
224.129	24942.67
224.202	24963.23
224.275	24955.99
224.348	24936.69
224.42	24923.81
224.493	24890.47
224.566	24874.74
224.639	24881.4
224.712	24861.76
224.785	24855.05
224.858	24861.08
224.931	24845.74
225.004	24828.27
225.077	24821.28
225.15	24777.33
225.223	24772.6
225.296	24781.96
225.369	24749.97
225.442	24723.82
225.514	24719.48
225.587	24710.89
225.66	24703.51
225.733	24684.55
225.806	24678.81
225.879	24667.91
225.952	24643.16
226.025	24652.76
226.097	24654.25
226.17	24638.96
226.243	24599.4
226.316	24591.05
226.389	24574.36
226.461	24566.84
226.534	24556.17
226.607	24535.87
226.68	24558.68
226.753	24553.47
226.825	24523.13
226.898	24530.26
226.971	24524.86
227.044	24516.47
227.117	24506.53
227.189	24499.68
227.262	24492.3
227.335	24487.86
227.407	24479.03
227.48	24469.77
227.553	24455.73
227.626	24431.71
227.698	24407.93
227.771	24399
227.844	24360.85
227.916	24337.6
227.989	24299.44
228.062	24278.65
228.134	24295.05
228.207	24275.18
228.28	24246.04
228.352	24220.72
228.425	24197.32
228.498	24193.03
228.57	24155.56
228.643	24140.65
228.716	24112.38
228.788	24088.94
228.861	24055.42
228.934	24041.33
229.006	24019.73
229.079	23987.56
229.151	23955.14
229.224	23918.2
229.296	23895.73
229.369	23913.09
229.442	23904.94
229.514	23887.72
229.587	23875.57
229.659	23826.47
229.732	23803.32
229.804	23797.14
229.877	23804.43
229.949	23790.25
230.022	23778.19
230.094	23760.73
230.167	23750.02
230.239	23722.58
230.312	23693.36
230.384	23688.1
230.457	23668.09
230.529	23646.58
230.602	23635.2
230.674	23610.7
230.747	23604.24
230.819	23599.75
230.892	23532.29
230.964	23521.63
231.037	23507.41
231.109	23489.18
231.181	23473.5
231.254	23440.23
231.326	23405.46
231.399	23370.74
231.471	23337.75
231.544	23287.84
231.616	23269.57
231.688	23240.06
231.761	23206.01
231.833	23183.26
231.905	23140.63
231.978	23114.98
232.05	23084.55
232.122	23048.29
232.195	23017.72
232.267	22995.59
232.339	22958.18
232.412	22957.89
232.484	22913.14
232.556	22884.16
232.629	22872.59
232.701	22856.34
232.773	22823.65
232.846	22796.03
232.918	22761.55
232.99	22741.98
233.062	22725.97
233.135	22699.94
233.207	22661.27
233.279	22649.12
233.351	22625.83
233.424	22585.19
233.496	22545.71
233.568	22538.04
233.64	22497.89
233.713	22477.35
233.785	22445.97
233.857	22424.22
233.929	22372.45
234.001	22367.68
234.074	22350.13
234.146	22288.61
234.218	22244.6
234.29	22217.99
234.362	22175.96
234.434	22123.75
234.507	22066.05
234.579	22013.65
234.651	21975.42
234.723	21956
234.795	21928.04
234.867	21884.17
234.939	21869.71
235.012	21835.58
235.084	21804.15
235.156	21789.21
235.228	21740.29
235.3	21702.21
235.372	21666.63
235.444	21646.87
235.516	21576.11
235.588	21540.15
235.66	21515.62
235.732	21480.72
235.804	21502.9
235.876	21479.09
235.948	21471.62
236.02	21442.26
236.092	21403.32
236.164	21377.53
236.236	21329.53
236.308	21282.39
236.38	21253.81
236.452	21200.17
236.524	21169.75
236.596	21158.52
236.668	21118.18
236.74	21089.02
236.812	21054.56
236.884	21023.29
236.956	20995.52
237.028	20955.38
237.1	20901.26
237.172	20888.05
237.244	20871.81
237.316	20793.92
237.388	20747.51
237.46	20698.93
237.532	20691.02
237.604	20652.52
237.675	20631.74
237.747	20606.59
237.819	20567.55
237.891	20523.84
237.963	20490.06
238.035	20461.09
238.107	20378.05
238.178	20348.32
238.25	20311.41
238.322	20308.51
238.394	20251.89
238.466	20206.44
238.538	20172.52
238.609	20153.58
238.681	20087.07
238.753	20034.69
238.825	19997.1
238.897	19961.58
238.968	19942.54
239.04	19887.8
239.112	19880.38
239.184	19824.43
239.255	19780.09
239.327	19736.19
239.399	19702.65
239.471	19676.68
239.542	19636.39
239.614	19622.27
239.686	19566.32
239.758	19547.04
239.829	19486.08
239.901	19463.24
239.973	19425.6
240.044	19400.4
240.116	19354.19
240.188	19315.06
240.259	19271.78
240.331	19225.95
240.403	19206.92
240.474	19143.93
240.546	19094.54
240.618	19023.07
240.689	18985.73
240.761	18951.61
240.833	18946.26
240.904	18903.37
240.976	18859.66
241.048	18826.8
241.119	18794.08
241.191	18761.98
241.262	18735.82
241.334	18701.7
241.405	18667.58
241.477	18630.76
241.549	18598.47
241.62	18562.09
241.692	18539.83
241.763	18520.36
241.835	18488.79
241.906	18436.36
241.978	18390.73
242.049	18370.87
242.121	18357.19
242.192	18333.86
242.264	18278.2
242.335	18210.35
242.407	18182.06
242.478	18138.4
242.55	18101.2
242.621	18056.28
242.693	18027.27
242.764	17980.72
242.836	17933.83
242.907	17897.01
242.979	17863.47
243.05	17826.32
243.122	17794.65
243.193	17745.98
243.264	17689.6
243.336	17646.9
243.407	17625.98
243.479	17616.92
243.55	17584.49
243.622	17556.68
243.693	17512.97
243.764	17491.96
243.836	17447.09
243.907	17412.92
243.978	17380.44
244.05	17344.05
244.121	17285.84
244.192	17249.79
244.264	17189.64
244.335	17156.68
244.407	17099.04
244.478	17063.66
244.549	17020.34
244.62	16972.38
244.692	16939.85
244.763	16909.54
244.834	16864.86
244.906	16814.16
244.977	16776.33
245.048	16754.25
245.119	16711.6
245.191	16670.44
245.262	16617.04
245.333	16608.22
245.405	16572.46
245.476	16542.67
245.547	16513.03
245.618	16499.49
245.689	16470.04
245.761	16448.88
245.832	16408.35
245.903	16386.18
245.974	16352.25
246.045	16320.15
246.117	16305.3
246.188	16257.11
246.259	16217.29
246.33	16192.62
246.401	16165.96
246.473	16121.28
246.544	16078.24
246.615	16047.78
246.686	16008.64
246.757	15990.04
246.828	15940.68
246.899	15926.56
246.97	15874.75
247.042	15826.93
247.113	15788.71
247.184	15777.24
247.255	15738.73
247.326	15716.22
247.397	15682.72
247.468	15653.07
247.539	15623.96
247.61	15578.7
247.681	15564.39
247.752	15543.9
247.823	15495.6
247.894	15462.39
247.965	15414.72
248.037	15377.65
248.108	15337.89
248.179	15312.39
248.25	15285.39
248.321	15266.02
248.392	15220.52
248.463	15221.91
248.534	15193.38
248.605	15180.75
248.675	15138.72
248.746	15116.98
248.817	15092.73
248.888	15073.55
248.959	15024.38
249.03	15001.15
249.101	14973.33
249.172	14933.13
249.243	14881.21
249.314	14872.97
249.385	14855.57
249.456	14837.93
249.527	14808.09
249.598	14786.2
249.669	14755.64
249.739	14724.12
249.81	14697.41
249.881	14655.43
249.952	14625.54
250.023	14605.53
250.094	14551.45
250.165	14515.01
250.235	14482.18
250.306	14453.88
250.377	14409.92
250.448	14398.06
250.519	14345.9
250.59	14337.47
250.66	14311.97
250.731	14305.07
250.802	14275.14
250.873	14240.96
250.944	14216.52
251.014	14187.6
251.085	14184.41
251.156	14157.56
251.227	14154.82
251.297	14151.01
251.368	14142.91
251.439	14122.71
251.51	14100.92
251.58	14073.15
251.651	14050.74
251.722	14032.85
251.792	13987.64
251.863	13972.74
251.934	13960.98
252.005	13971.2
252.075	13938.37
252.146	13920.49
252.217	13910.12
252.287	13897.39
252.358	13873.63
252.429	13878.98
252.499	13853.38
252.57	13826.53
252.641	13820.75
252.711	13787.44
252.782	13740
252.852	13731.03
252.923	13708.33
252.994	13683.84
253.064	13673.91
253.135	13639.2
253.205	13616.54
253.276	13621.75
253.347	13612.74
253.417	13582.12
253.488	13549.25
253.558	13520.85
253.629	13499.74
253.699	13482.1
253.77	13468.21
253.841	13440.49
253.911	13414.9
253.982	13389.54
254.052	13374.69
254.123	13349.33
254.193	13326
254.264	13343.6
254.334	13317.18
254.405	13278.91
254.475	13247.81
254.546	13225.16
254.616	13216.86
254.687	13199.36
254.757	13172.47
254.827	13141.9
254.898	13117.9
254.968	13094.32
255.039	13066.07
255.109	13057.06
255.18	13016.62
255.25	12964.6
255.321	12954.62
255.391	12909.21
255.461	12908.54
255.532	12850.45
255.602	12819.31
255.673	12776.21
255.743	12735.96
255.813	12675.61
255.884	12670.84
255.954	12654.74
256.024	12649.87
256.095	12622.44
256.165	12583.59
256.235	12574.62
256.306	12545.94
256.376	12541.36
256.446	12531.33
256.517	12521.93
256.587	12503.52
256.657	12490.79
256.728	12476.86
256.798	12457.05
256.868	12437.96
256.938	12408.89
257.009	12404.22
257.079	12398.58
257.149	12420.32
257.219	12380.98
257.29	12373.46
257.36	12331.77
257.43	12327.43
257.5	12285.06
257.571	12261.78
257.641	12255.17
257.711	12216.66
257.781	12206.44
257.852	12188.56
257.922	12148.64
257.992	12132.21
258.062	12110.03
258.132	12097.64
258.202	12078.51
258.273	12054.7
258.343	12059.13
258.413	12033.01
258.483	12013.53
258.553	11979.6
258.623	11940.17
258.693	11929.81
258.764	11931.01
258.834	11927.97
258.904	11904.93
258.974	11880.93
259.044	11861.6
259.114	11852.45
259.184	11836.4
259.254	11815.24
259.324	11771.13
259.394	11758.46
259.464	11751.47
259.535	11733.73
259.605	11706.98
259.675	11676.81
259.745	11665.82
259.815	11624.61
259.885	11600.03
259.955	11615.07
260.025	11590.83
260.095	11572.17
260.165	11556.6
260.235	11555.11
260.305	11532.22
260.375	11501.03
260.445	11505.27
260.515	11505.56
260.585	11500.07
260.655	11486.19
260.725	11480.5
260.795	11480.21
260.865	11487.78
260.934	11462.76
261.004	11451
261.074	11434.33
261.144	11438.57
261.214	11435.49
261.284	11421.8
261.354	11418.71
261.424	11386.76
261.494	11391.24
261.564	11374.37
261.634	11368.01
261.703	11329.45
261.773	11317.5
261.843	11308.73
