Data from 20250703_urea_0.1M_MAYP1162681_18-21-05-649.txt Node
Date: Thu Jul 03 18:21:05 BST 2025
User: adleo
Spectrometer: MAYP116268
Trigger mode: 0
Integration Time (sec): 1.000000E0
Scans to average: 1
Electric dark correction enabled: true
Nonlinearity correction enabled: true
Boxcar width: 10
XAxis mode: Wavelengths
Number of Pixels in Spectrum: 2068
>>>>>Begin Spectral Data<<<<<
179.565	1357.44
179.642	1419.62
179.718	1466.93
179.795	1510.4
179.871	1549.41
179.948	1568.94
180.024	1593.45
180.101	1620.74
180.177	1639.53
180.254	1666.87
180.33	1689.76
180.407	1755.63
180.483	1861.97
180.56	1962.32
180.636	2055.91
180.712	2041.82
180.789	2051
180.865	2066.93
180.942	2074.59
181.018	2085.43
181.095	2097.95
181.171	2106.17
181.248	2109.84
181.324	2127.87
181.4	2137.53
181.477	2149.95
181.553	2165.69
181.63	2187
181.706	2202.09
181.782	2209.32
181.859	2206.84
181.935	2216.41
182.011	2212.41
182.088	2231.68
182.164	2255.15
182.24	2271.56
182.317	2281.98
182.393	2280.79
182.469	2296.31
182.546	2311.39
182.622	2317.67
182.698	2307.44
182.775	2321.77
182.851	2335.48
182.927	2327.86
183.003	2320.34
183.08	2314.2
183.156	2323.77
183.232	2319.1
183.308	2308.54
183.385	2315.3
183.461	2335.1
183.537	2334.76
183.613	2349.14
183.69	2339.85
183.766	2329.24
183.842	2337.99
183.918	2343.37
183.995	2359.6
184.071	2363.22
184.147	2356.99
184.223	2344.52
184.299	2362.04
184.375	2346.14
184.452	2353.57
184.528	2405.75
184.604	2419.41
184.68	2429.4
184.756	2438.12
184.832	2444.54
184.908	2447.78
184.985	2449.92
185.061	2432.69
185.137	2441.4
185.213	2428.5
185.289	2428.31
185.365	2418.37
185.441	2413.84
185.517	2427.8
185.593	2423.18
185.669	2418.42
185.745	2431.7
185.822	2450.35
185.898	2441.59
185.974	2453.01
186.05	2447.73
186.126	2407.87
186.202	2400.69
186.278	2394.12
186.354	2382.93
186.43	2390.98
186.506	2388.31
186.582	2388.12
186.658	2395.17
186.734	2373.42
186.81	2376.75
186.886	2378.94
186.962	2392.31
187.038	2390.03
187.114	2382.41
187.19	2391.88
187.266	2380.36
187.341	2379.17
187.417	2371.89
187.493	2372.22
187.569	2374.22
187.645	2362.89
187.721	2353.85
187.797	2362.65
187.873	2372.22
187.949	2366.37
188.025	2357.46
188.101	2364.51
188.176	2367.12
188.252	2362.27
188.328	2372.55
188.404	2373.59
188.48	2368.98
188.556	2361.12
188.632	2360.7
188.707	2362.22
188.783	2356.89
188.859	2351.22
188.935	2339.28
189.011	2346.94
189.086	2339.94
189.162	2329.9
189.238	2326.76
189.314	2325
189.39	2314.15
189.465	2304.86
189.541	2322.76
189.617	2306.92
189.693	2298.73
189.768	2303.35
189.844	2331.16
189.92	2320.74
189.996	2330.17
190.071	2344.64
190.147	2342.07
190.223	2353.64
190.298	2344.5
190.374	2331.45
190.45	2347.87
190.526	2358.58
190.601	2353.2
190.677	2354.91
190.753	2386.78
190.828	2391.68
190.904	2409.15
190.98	2425.86
191.055	2438.14
191.131	2428.86
191.207	2450.71
191.282	2461.94
191.358	2451.56
191.433	2435.36
191.509	2449.64
191.585	2445.78
191.66	2444.54
191.736	2456.25
191.811	2446.64
191.887	2461.87
191.963	2487.82
192.038	2491.06
192.114	2491.68
192.189	2496.73
192.265	2493.87
192.34	2469.77
192.416	2469.1
192.491	2463.2
192.567	2467.2
192.642	2466.77
192.718	2467.43
192.793	2455.82
192.869	2450.25
192.944	2454.63
193.02	2462.82
193.095	2467.44
193.171	2469.44
193.246	2466.91
193.322	2462.63
193.397	2464.1
193.473	2452.48
193.548	2433
193.624	2439.67
193.699	2439.77
193.775	2458.2
193.85	2458.87
193.925	2470.3
194.001	2470.25
194.076	2460.68
194.152	2451.87
194.227	2447.54
194.302	2438.3
194.378	2442.59
194.453	2440.68
194.529	2455.3
194.604	2438.11
194.679	2431.45
194.755	2416.03
194.83	2433.94
194.905	2433.56
194.981	2440.89
195.056	2430.9
195.131	2435.27
195.207	2434.18
195.282	2420.95
195.357	2396.61
195.433	2414.41
195.508	2401.56
195.583	2409.32
195.659	2427.84
195.734	2432.89
195.809	2432.17
195.884	2437.98
195.96	2438.5
196.035	2456.4
196.11	2450.16
196.185	2465.78
196.261	2471.25
196.336	2505.54
196.411	2487.06
196.486	2492.39
196.561	2487.1
196.637	2498.77
196.712	2516.25
196.787	2520.2
196.862	2536.63
196.937	2550.67
197.013	2556.58
197.088	2568.72
197.163	2594.35
197.238	2612.9
197.313	2614.09
197.388	2626.61
197.464	2661.39
197.539	2673.68
197.614	2665.49
197.689	2679.21
197.764	2697.32
197.839	2719.23
197.914	2710.8
197.989	2737.29
198.065	2751.91
198.14	2806.22
198.215	2836.53
198.29	2848.83
198.365	2861.46
198.44	2876.85
198.515	2905.45
198.59	2921.23
198.665	2946.39
198.74	2954.83
198.815	2952.83
198.89	2979.91
198.965	3014.48
199.04	3010.81
199.115	3028.78
199.19	3077.79
199.265	3079.6
199.34	3091.52
199.415	3128.74
199.49	3154.19
199.565	3164.21
199.64	3189.53
199.715	3186.67
199.79	3192.34
199.865	3200.88
199.94	3203.41
200.015	3237.91
200.09	3246.45
200.165	3254.13
200.24	3262.52
200.315	3306.45
200.39	3327.4
200.464	3333.36
200.539	3335.18
200.614	3352.97
200.689	3375.83
200.764	3383.99
200.839	3405.16
200.914	3406.26
200.989	3395.85
201.063	3407.64
201.138	3392.28
201.213	3392.86
201.288	3374.58
201.363	3379.21
201.438	3381.21
201.512	3395.24
201.587	3372.42
201.662	3375.24
201.737	3388.84
201.812	3395.71
201.886	3358.08
201.961	3367.48
202.036	3356.27
202.111	3354.46
202.186	3326.13
202.26	3313.63
202.335	3289.34
202.41	3283.99
202.485	3270.73
202.559	3247.55
202.634	3221.46
202.709	3231.37
202.784	3214.49
202.858	3215.34
202.933	3197.94
203.008	3195.5
203.082	3177.52
203.157	3184.06
203.232	3144.77
203.306	3127.49
203.381	3104.07
203.456	3087.19
203.53	3073.82
203.605	3062.28
203.68	3048.59
203.754	3052.21
203.829	3049.78
203.904	3042.72
203.978	3046.06
204.053	3066.95
204.127	3074.44
204.202	3095.33
204.277	3094.9
204.351	3109.26
204.426	3128.87
204.5	3150.1
204.575	3141.7
204.65	3187.04
204.724	3214.11
204.799	3258.61
204.873	3291.83
204.948	3328.06
205.022	3360.12
205.097	3388.63
205.171	3450.92
205.246	3507.57
205.32	3558.35
205.395	3614.25
205.469	3663.03
205.544	3729.65
205.618	3771.74
205.693	3851.07
205.767	3908.37
205.842	4010.43
205.916	4080.12
205.991	4141.85
206.065	4225.77
206.14	4322.9
206.214	4403.36
206.289	4485.88
206.363	4588.53
206.438	4686.01
206.512	4795.6
206.586	4915.87
206.661	5035.46
206.735	5113.7
206.81	5226.93
206.884	5356.19
206.958	5456.66
207.033	5594.83
207.107	5725.27
207.181	5881.93
207.256	5994.37
207.33	6143.64
207.405	6281.11
207.479	6429.03
207.553	6567.64
207.628	6686.31
207.702	6837.47
207.776	6966.2
207.851	7099.37
207.925	7263.41
207.999	7401.1
208.073	7539.64
208.148	7687.87
208.222	7825.32
208.296	8013.69
208.371	8180.26
208.445	8350.05
208.519	8531.14
208.593	8698.37
208.668	8845.56
208.742	9004.87
208.816	9169
208.89	9334.78
208.965	9495.44
209.039	9669.91
209.113	9852.81
209.187	10038.45
209.261	10194.78
209.336	10381.88
209.41	10574.57
209.484	10724.75
209.558	10916.56
209.632	11091.32
209.707	11262.77
209.781	11441.55
209.855	11618.28
209.929	11796.71
210.003	11956.53
210.077	12116.02
210.151	12319.52
210.226	12513.34
210.3	12707.35
210.374	12891.77
210.448	13056
210.522	13221.73
210.596	13390.68
210.67	13557.42
210.744	13758.19
210.818	13946.24
210.892	14121.65
210.966	14261.84
211.041	14438.31
211.115	14576.85
211.189	14754.39
211.263	14922.28
211.337	15076.48
211.411	15236.95
211.485	15376.92
211.559	15529.92
211.633	15664.21
211.707	15766.59
211.781	15922.27
211.855	16015.24
211.929	16137.77
212.003	16256.09
212.077	16410.61
212.151	16556.07
212.225	16710.49
212.299	16830.16
212.373	16941.54
212.447	17058.21
212.52	17218.37
212.594	17344.01
212.668	17492.68
212.742	17596.73
212.816	17714.18
212.89	17825.6
212.964	17946.46
213.038	18064.82
213.112	18203.85
213.186	18347.8
213.26	18451.46
213.333	18509.48
213.407	18635.21
213.481	18747.45
213.555	18869.76
213.629	18964.07
213.703	19055.77
213.777	19150.66
213.85	19233.35
213.924	19380.14
213.998	19486.93
214.072	19589.29
214.146	19670.49
214.219	19754.83
214.293	19853.52
214.367	19952.65
214.441	20076.31
214.515	20159.25
214.588	20236.79
214.662	20290.09
214.736	20358.04
214.81	20458.52
214.883	20553.41
214.957	20621.99
215.031	20695.15
215.105	20751.39
215.178	20815.92
215.252	20887.06
215.326	20935.88
215.4	20999.49
215.473	21029.91
215.547	21087.26
215.621	21137
215.694	21223.95
215.768	21271.09
215.842	21325.55
215.915	21376.02
215.989	21395.97
216.063	21445.86
216.136	21499.41
216.21	21559.03
216.284	21626.28
216.357	21682.72
216.431	21746.49
216.504	21814.12
216.578	21912.31
216.652	21982.54
216.725	22031.32
216.799	22096.84
216.873	22160.03
216.946	22223.09
217.02	22264.16
217.093	22316.85
217.167	22349.48
217.24	22379.71
217.314	22432.16
217.387	22475.64
217.461	22516.14
217.535	22588.74
217.608	22626.73
217.682	22678.08
217.755	22740.42
217.829	22779.86
217.902	22827.4
217.976	22866.16
218.049	22905.55
218.123	22920.6
218.196	22970.55
218.27	23007.67
218.343	23025.22
218.417	23071.71
218.49	23108.06
218.563	23166.02
218.637	23213.52
218.71	23282.57
218.784	23333.11
218.857	23388.13
218.931	23438.61
219.004	23484.67
219.077	23523.59
219.151	23557.68
219.224	23585.16
219.298	23611.83
219.371	23656.73
219.444	23675.44
219.518	23709.15
219.591	23740.98
219.665	23813.28
219.738	23849.94
219.811	23877.96
219.885	23932.17
219.958	23963.33
220.031	23994.87
220.105	24042.48
220.178	24065.72
220.251	24085.89
220.325	24125.1
220.398	24151.1
220.471	24173.87
220.544	24206.62
220.618	24222.83
220.691	24267.93
220.764	24305.65
220.838	24339.22
220.911	24364.16
220.984	24407.96
221.057	24438.92
221.131	24464.35
221.204	24446.74
221.277	24480.12
221.35	24533.81
221.424	24535.6
221.497	24555.91
221.57	24579.4
221.643	24593.68
221.716	24616.16
221.79	24633.77
221.863	24633.82
221.936	24646.94
222.009	24668.31
222.082	24684.57
222.155	24705.56
222.229	24736.53
222.302	24750.72
222.375	24756.31
222.448	24771.08
222.521	24787.53
222.594	24799.73
222.667	24797.52
222.74	24832.5
222.814	24837.95
222.887	24836.69
222.96	24864.87
223.033	24881.23
223.106	24885.28
223.179	24892.56
223.252	24910.32
223.325	24911.72
223.398	24928.41
223.471	24934.59
223.544	24940.48
223.617	24946.41
223.69	24948.34
223.763	24928.61
223.837	24931.79
223.91	24950.08
223.983	24936.66
224.056	24917.41
224.129	24924.89
224.202	24932.66
224.275	24915.77
224.348	24906.65
224.42	24891.74
224.493	24856.96
224.566	24845.18
224.639	24840.84
224.712	24833.22
224.785	24814.55
224.858	24795.68
224.931	24778.17
225.004	24753.52
225.077	24746.28
225.15	24717.62
225.223	24696.73
225.296	24713.28
225.369	24683.27
225.442	24659.54
225.514	24646.85
225.587	24644.53
225.66	24627.55
225.733	24628.95
225.806	24622.68
225.879	24609.51
225.952	24588.71
226.025	24601.98
226.097	24607.72
226.17	24598.46
226.243	24562.37
226.316	24551.86
226.389	24554.08
226.461	24545.68
226.534	24554.46
226.607	24527.54
226.68	24536.28
226.753	24529.62
226.825	24493.82
226.898	24504.53
226.971	24483.59
227.044	24479.59
227.117	24468.3
227.189	24465.65
227.262	24465.26
227.335	24444.04
227.407	24424.4
227.48	24428.45
227.553	24416.39
227.626	24388.07
227.698	24373.12
227.771	24365.98
227.844	24344.27
227.916	24323.63
227.989	24284.51
228.062	24258.46
228.134	24270.47
228.207	24241.05
228.28	24210.37
228.352	24180.61
228.425	24147.96
228.498	24133.05
228.57	24097.03
228.643	24091.29
228.716	24062.34
228.788	24018.45
228.861	23998.48
228.934	23993.22
229.006	23964.81
229.079	23939.3
229.151	23903.56
229.224	23867
229.296	23853.01
229.369	23854.22
229.442	23843.9
229.514	23819.59
229.587	23805.7
229.659	23761.28
229.732	23751.16
229.804	23753.71
229.877	23760.61
229.949	23760.8
230.022	23775.18
230.094	23763.65
230.167	23742.38
230.239	23707.85
230.312	23686.97
230.384	23678.77
230.457	23651.67
230.529	23631.41
230.602	23604.65
230.674	23602.96
230.747	23603.64
230.819	23588.59
230.892	23524.5
230.964	23502.12
231.037	23486.4
231.109	23455.4
231.181	23439
231.254	23406.36
231.326	23365.22
231.399	23335.32
231.471	23294.14
231.544	23228.36
231.616	23203.63
231.688	23174.94
231.761	23143.65
231.833	23114.57
231.905	23069.05
231.978	23044.61
232.05	23005.55
232.122	22995.33
232.195	22952.46
232.267	22934.23
232.339	22902.51
232.412	22903.62
232.484	22872.61
232.556	22841.76
232.629	22837.37
232.701	22823.53
232.773	22796.68
232.846	22767.22
232.918	22735.93
232.99	22723.49
233.062	22718.04
233.135	22701.41
233.207	22661.97
233.279	22652.47
233.351	22627.79
233.424	22596.89
233.496	22562.76
233.568	22564.15
233.64	22510.78
233.713	22485.62
233.785	22442.33
233.857	22416.87
233.929	22356.23
234.001	22343.4
234.074	22330.63
234.146	22275.62
234.218	22240.09
234.29	22206.93
234.362	22173.72
234.434	22127.63
234.507	22068.1
234.579	22011.6
234.651	21968.6
234.723	21943.1
234.795	21910.42
234.867	21879.42
234.939	21855.56
235.012	21817.92
235.084	21782.34
235.156	21768.12
235.228	21726.67
235.3	21695.24
235.372	21656.73
235.444	21642.46
235.516	21581.34
235.588	21546.73
235.66	21521.81
235.732	21479.3
235.804	21505.57
235.876	21484.94
235.948	21467.45
236.02	21439.44
236.092	21412.6
236.164	21382.14
236.236	21338.32
236.308	21296.34
236.38	21262.51
236.452	21231.42
236.524	21196.96
236.596	21179.75
236.668	21145.58
236.74	21118.3
236.812	21082.88
236.884	21062.54
236.956	21026.59
237.028	20979.16
237.1	20944.7
237.172	20925.62
237.244	20912.8
237.316	20835.53
237.388	20785.8
237.46	20736.01
237.532	20715.38
237.604	20666.71
237.675	20639.19
237.747	20624.59
237.819	20575.24
237.891	20535.87
237.963	20477.31
238.035	20437.7
238.107	20356.39
238.178	20326.32
238.25	20275.38
238.322	20267.82
238.394	20197.65
238.466	20164.4
238.538	20140.93
238.609	20105.02
238.681	20050.71
238.753	20005.75
238.825	19966.66
238.897	19933.65
238.968	19918.23
239.04	19867.49
239.112	19865.37
239.184	19809.95
239.255	19760.45
239.327	19734.87
239.399	19703.64
239.471	19681.76
239.542	19647.26
239.614	19630.78
239.686	19568.32
239.758	19550.78
239.829	19496.61
239.901	19481.63
239.973	19438.06
240.044	19403.08
240.116	19367.95
240.188	19324.67
240.259	19277.35
240.331	19233.78
240.403	19211.67
240.474	19158.61
240.546	19114.51
240.618	19048.45
240.689	19014.42
240.761	18980.5
240.833	18960.21
240.904	18917.37
240.976	18877.81
241.048	18851.83
241.119	18813.76
241.191	18784.56
241.262	18758.97
241.334	18722.68
241.405	18679.79
241.477	18642.88
241.549	18597.97
241.62	18560.67
241.692	18529.63
241.763	18501.64
241.835	18455.66
241.906	18413.74
241.978	18360.78
242.049	18338.99
242.121	18311.28
242.192	18290.61
242.264	18233.41
242.335	18174.71
242.407	18147.44
242.478	18108.83
242.55	18071.15
242.621	18028.84
242.693	17986.86
242.764	17942.34
242.836	17895.45
242.907	17862.24
242.979	17834.24
243.05	17807.69
243.122	17776.8
243.193	17743.79
243.264	17689.43
243.336	17651.45
243.407	17622.59
243.479	17613.81
243.55	17579.21
243.622	17553.19
243.693	17518.73
243.764	17506.78
243.836	17458.3
243.907	17417.09
243.978	17382.3
244.05	17347.79
244.121	17295.16
244.192	17274.92
244.264	17216.27
244.335	17178.87
244.407	17130.63
244.478	17097.9
244.549	17059.49
244.62	17006.77
244.692	16967.3
244.763	16941.61
244.834	16913.37
244.906	16868.88
244.977	16830.47
245.048	16806.38
245.119	16754.81
245.191	16703.82
245.262	16635.48
245.333	16625.55
245.405	16593.11
245.476	16560.96
245.547	16535.71
245.618	16520.05
245.689	16481.3
245.761	16458.45
245.832	16423.8
245.903	16403.6
245.974	16371.46
246.045	16330.92
246.117	16316.99
246.188	16264.55
246.259	16215.73
246.33	16173.22
246.401	16133.74
246.473	16092.15
246.544	16046.94
246.615	16026.45
246.686	15987.94
246.757	15980.33
246.828	15931.89
246.899	15917.33
246.97	15860.31
247.042	15810.62
247.113	15784.25
247.184	15775.77
247.255	15727.33
247.326	15694.69
247.397	15651.75
247.468	15626.06
247.539	15598.58
247.61	15546.77
247.681	15528.07
247.752	15515.48
247.823	15475.48
247.894	15447.86
247.965	15399.32
248.037	15372.57
248.108	15318.92
248.179	15290.24
248.25	15253.41
248.321	15232.01
248.392	15183.23
248.463	15192.97
248.534	15161.68
248.605	15132.71
248.675	15090.1
248.746	15085.81
248.817	15067.74
248.888	15049.32
248.959	14991.96
249.03	14974.08
249.101	14946.46
249.172	14914.31
249.243	14854.73
249.314	14851.69
249.385	14823.92
249.456	14805.65
249.527	14764.44
249.598	14752.2
249.669	14725.2
249.739	14708.52
249.81	14686.83
249.881	14646.39
249.952	14611.34
250.023	14583.19
250.094	14534.79
250.165	14501.87
250.235	14462.92
250.306	14433.47
250.377	14390.42
250.448	14368.25
250.519	14315.36
250.59	14312.62
250.66	14288.61
250.731	14288.66
250.802	14256.99
250.873	14233.27
250.944	14209.84
251.014	14184.63
251.085	14182.99
251.156	14166.22
251.227	14149.06
251.297	14140.67
251.368	14126.4
251.439	14116.37
251.51	14107.89
251.58	14083.54
251.651	14047.24
251.722	14041.41
251.792	13987.81
251.863	13962.88
251.934	13954.78
252.005	13960.04
252.075	13931.4
252.146	13916.65
252.217	13905.71
252.287	13887.92
252.358	13872.59
252.429	13869.22
252.499	13843.96
252.57	13824
252.641	13806.65
252.711	13777.77
252.782	13734.14
252.852	13731.93
252.923	13695.92
252.994	13667.33
253.064	13653.83
253.135	13629.82
253.205	13596.08
253.276	13603.17
253.347	13598.68
253.417	13570.43
253.488	13544.69
253.558	13518.81
253.629	13496.63
253.699	13471.76
253.77	13460.62
253.841	13425.19
253.911	13401.08
253.982	13375.54
254.052	13354.37
254.123	13333.07
254.193	13308.72
254.264	13330.56
254.334	13299.37
254.405	13268.47
254.475	13236.03
254.546	13208.4
254.616	13197.12
254.687	13178.61
254.757	13168.25
254.827	13141.88
254.898	13119.51
254.968	13095.84
255.039	13059.59
255.109	13039.97
255.18	13009.12
255.25	12958.79
255.321	12946.55
255.391	12911.26
255.461	12913.33
255.532	12854.62
255.602	12827.14
255.673	12792.43
255.743	12753.92
255.813	12710.05
255.884	12702.19
255.954	12696.22
256.024	12703.49
256.095	12683.78
256.165	12651.72
256.235	12627.91
256.306	12604.63
256.376	12597.11
256.446	12582.02
256.517	12574.64
256.587	12573.82
256.657	12564.52
256.728	12550.11
256.798	12529.52
256.868	12508.02
256.938	12478.57
257.009	12478.14
257.079	12462.81
257.149	12471.63
257.219	12429.11
257.29	12411.38
257.36	12367.9
257.43	12354.69
257.5	12304.17
257.571	12275.54
257.641	12264.31
257.711	12237.94
257.781	12223.19
257.852	12206.75
257.922	12172.96
257.992	12144.52
258.062	12116.56
258.132	12097.67
258.202	12076.32
258.273	12057.71
258.343	12057.32
258.413	12033.37
258.483	12019.15
258.553	11995.63
258.623	11961.93
258.693	11945.59
258.764	11948.39
258.834	11951.95
258.904	11932.96
258.974	11912.58
259.044	11893.83
259.114	11880.09
259.184	11860.04
259.254	11840.23
259.324	11802.49
259.394	11791.4
259.464	11797.91
259.535	11771.93
259.605	11750.62
259.675	11720.45
259.745	11707.58
259.815	11678.81
259.885	11657.99
259.955	11665.41
260.025	11638.08
260.095	11625.45
260.165	11614.61
260.235	11606.51
260.305	11575.62
260.375	11546.75
260.445	11548.43
260.515	11544.43
260.585	11540.39
260.655	11521.11
260.725	11519.42
260.795	11512.58
260.865	11513.97
260.934	11488.28
261.004	11482.79
261.074	11469.25
261.144	11475.66
261.214	11471.85
261.284	11452.91
261.354	11451.46
261.424	11420.57
261.494	11429.91
261.564	11406.49
261.634	11399.55
261.703	11361.57
261.773	11355.07
