Data from 20250703_urea_0.1M_MAYP1162681_19-01-05-476.txt Node
Date: Thu Jul 03 19:01:05 BST 2025
User: adleo
Spectrometer: MAYP116268
Trigger mode: 0
Integration Time (sec): 1.000000E0
Scans to average: 1
Electric dark correction enabled: true
Nonlinearity correction enabled: true
Boxcar width: 10
XAxis mode: Wavelengths
Number of Pixels in Spectrum: 2068
>>>>>Begin Spectral Data<<<<<
179.565	1358.32
179.642	1416.54
179.718	1468.03
179.795	1511.31
179.871	1551.21
179.948	1571.58
180.024	1599.25
180.101	1624.07
180.177	1639.18
180.254	1665.21
180.33	1691.95
180.407	1756.11
180.483	1863.35
180.56	1966.51
180.636	2061.52
180.712	2045.67
180.789	2055.81
180.865	2072.87
180.942	2082.62
181.018	2093.33
181.095	2106.65
181.171	2114.64
181.248	2118.49
181.324	2134.72
181.4	2142.38
181.477	2154.75
181.553	2170.78
181.63	2191.19
181.706	2209.94
181.782	2217.36
181.859	2215.08
181.935	2221.45
182.011	2219.83
182.088	2238.44
182.164	2260.06
182.24	2276.66
182.317	2287.79
182.393	2288.31
182.469	2303.16
182.546	2317.25
182.622	2322.58
182.698	2318.44
182.775	2328.67
182.851	2348.85
182.927	2339.24
183.003	2335.67
183.08	2327.15
183.156	2336.72
183.232	2333.62
183.308	2322.72
183.385	2333.95
183.461	2354.32
183.537	2352.04
183.613	2366.65
183.69	2357.84
183.766	2345.61
183.842	2351.56
183.918	2358.46
183.995	2374.88
184.071	2379.64
184.147	2373.69
184.223	2362.61
184.299	2377.13
184.375	2365.37
184.452	2368.18
184.528	2419.69
184.604	2433.02
184.68	2447.34
184.756	2454.39
184.832	2459.34
184.908	2461.01
184.985	2460.15
185.061	2442.45
185.137	2457.4
185.213	2443.73
185.289	2443.26
185.365	2431.5
185.441	2430.65
185.517	2440.22
185.593	2432.65
185.669	2427.89
185.745	2441.17
185.822	2459.59
185.898	2446.64
185.974	2460.44
186.05	2451.3
186.126	2420.12
186.202	2413.36
186.278	2409.03
186.354	2398.79
186.43	2404.31
186.506	2404.65
186.582	2407.07
186.658	2416.59
186.734	2391.89
186.81	2392.74
186.886	2394.98
186.962	2416.16
187.038	2411.16
187.114	2406.31
187.19	2416.92
187.266	2407.88
187.341	2405.45
187.417	2396.41
187.493	2399.83
187.569	2402.36
187.645	2396.36
187.721	2382.79
187.797	2387.98
187.873	2393.6
187.949	2389.12
188.025	2383.69
188.101	2386.36
188.176	2390.74
188.252	2385.79
188.328	2395.26
188.404	2397.64
188.48	2393.4
188.556	2384.26
188.632	2383.73
188.707	2386.16
188.783	2376.54
188.859	2372.07
188.935	2360.31
189.011	2368.88
189.086	2361.98
189.162	2351.6
189.238	2350.55
189.314	2349.65
189.39	2345.56
189.465	2335.8
189.541	2353.13
189.617	2336.33
189.693	2334.61
189.768	2339.9
189.844	2365.66
189.92	2352.48
189.996	2364.43
190.071	2377.33
190.147	2373.9
190.223	2386.57
190.298	2378.62
190.374	2368.15
190.45	2377.9
190.526	2387.85
190.601	2379.9
190.677	2382.61
190.753	2410.52
190.828	2413.62
190.904	2429.62
190.98	2444.09
191.055	2455.52
191.131	2446.37
191.207	2468.8
191.282	2477.17
191.358	2465.51
191.433	2452.12
191.509	2468.92
191.585	2461.78
191.66	2462.59
191.736	2472.78
191.811	2464.35
191.887	2479.87
191.963	2508.49
192.038	2516.97
192.114	2517.78
192.189	2523.63
192.265	2518.54
192.34	2497.15
192.416	2495.29
192.491	2488.63
192.567	2490.15
192.642	2493.67
192.718	2493.67
192.793	2479.15
192.869	2474.87
192.944	2478.53
193.02	2484.15
193.095	2489.91
193.171	2496.86
193.246	2497.2
193.322	2491.48
193.397	2491.63
193.473	2477.58
193.548	2455.34
193.624	2460.48
193.699	2459.67
193.775	2475.77
193.85	2478.86
193.925	2491.05
194.001	2491.43
194.076	2484.29
194.152	2474.48
194.227	2467.34
194.302	2457.63
194.378	2464.2
194.453	2461.2
194.529	2473.53
194.604	2457.72
194.679	2451.2
194.755	2431.36
194.83	2441.03
194.905	2440.17
194.981	2447.64
195.056	2438.22
195.131	2445.36
195.207	2444.41
195.282	2434.36
195.357	2414.17
195.433	2431.26
195.508	2413.41
195.583	2419.78
195.659	2435.55
195.734	2444.36
195.809	2445.79
195.884	2455.07
195.96	2452.78
196.035	2470.59
196.11	2465.3
196.185	2477.78
196.261	2482.2
196.336	2516.01
196.411	2502.39
196.486	2508.53
196.561	2502.58
196.637	2513.62
196.712	2530.96
196.787	2533.87
196.862	2550.58
196.937	2563.44
197.013	2572.06
197.088	2587.91
197.163	2613.93
197.238	2630.71
197.313	2630.04
197.388	2641.14
197.464	2674.92
197.539	2687.64
197.614	2678.21
197.689	2693.41
197.764	2715.61
197.839	2733.57
197.914	2728.62
197.989	2754.25
198.065	2770.92
198.14	2826.86
198.215	2852.78
198.29	2863.36
198.365	2879.04
198.44	2888.14
198.515	2920.04
198.59	2937.39
198.665	2959.84
198.74	2968.81
198.815	2973.1
198.89	2999.17
198.965	3034.8
199.04	3027.69
199.115	3046.42
199.19	3092.86
199.265	3094.29
199.34	3101.63
199.415	3142.28
199.49	3164.74
199.565	3176.66
199.64	3201.56
199.715	3195.54
199.79	3208.33
199.865	3218.01
199.94	3215
200.015	3249.4
200.09	3254.6
200.165	3257.99
200.24	3271.35
200.315	3314.13
200.39	3329.54
200.464	3334.08
200.539	3335.99
200.614	3356.21
200.689	3378.88
200.764	3388.62
200.839	3408.93
200.914	3413.85
200.989	3401.34
201.063	3415.22
201.138	3397.39
201.213	3394.24
201.288	3376.39
201.363	3378.45
201.438	3382.07
201.512	3399.43
201.587	3383.02
201.662	3385.35
201.737	3399.53
201.812	3406.31
201.886	3375.54
201.961	3384.9
202.036	3376.36
202.111	3371.97
202.186	3343.22
202.26	3328.75
202.335	3305.75
202.41	3300.93
202.485	3285.05
202.559	3266.92
202.634	3242.78
202.709	3254.27
202.784	3239.67
202.858	3240.77
202.933	3224.74
203.008	3221.31
203.082	3205.38
203.157	3211.2
203.232	3171.96
203.306	3151.96
203.381	3127.96
203.456	3105.11
203.53	3089.84
203.605	3078.44
203.68	3064.03
203.754	3066.27
203.829	3064.79
203.904	3054.59
203.978	3059.41
204.053	3083.93
204.127	3089.32
204.202	3107.16
204.277	3107.59
204.351	3122.75
204.426	3139.84
204.5	3155.86
204.575	3144.08
204.65	3187.76
204.724	3212.59
204.799	3252.4
204.873	3291.45
204.948	3330.45
205.022	3363.95
205.097	3400.06
205.171	3458.72
205.246	3518
205.32	3568.82
205.395	3620.17
205.469	3669.24
205.544	3734.95
205.618	3775.04
205.693	3852.75
205.767	3907.7
205.842	4004.84
205.916	4073.33
205.991	4137.06
206.065	4227.88
206.14	4325.24
206.214	4404.64
206.289	4483.33
206.363	4591.62
206.438	4686.42
206.512	4786.4
206.586	4905.33
206.661	5014.48
206.735	5093.39
206.81	5199.75
206.884	5329.83
206.958	5432.77
207.033	5561.47
207.107	5686.82
207.181	5840.31
207.256	5950.59
207.33	6092.97
207.405	6234.86
207.479	6381.96
207.553	6523.74
207.628	6633.04
207.702	6780.64
207.776	6901.87
207.851	7038.92
207.925	7189.77
207.999	7322.7
208.073	7464.45
208.148	7603.77
208.222	7735.33
208.296	7916.43
208.371	8078.55
208.445	8236.29
208.519	8413.95
208.593	8572.67
208.668	8719.61
208.742	8877.04
208.816	9037.3
208.89	9207.83
208.965	9362.81
209.039	9529.33
209.113	9699.8
209.187	9882.48
209.261	10037.22
209.336	10222.51
209.41	10402.24
209.484	10559.93
209.558	10744.65
209.632	10913.47
209.707	11081.53
209.781	11260.35
209.855	11437.02
209.929	11612.99
210.003	11774.3
210.077	11928.29
210.151	12149.61
210.226	12340.73
210.3	12526.35
210.374	12699.68
210.448	12853.5
210.522	13007.41
210.596	13165.67
210.67	13331.88
210.744	13534.52
210.818	13721.22
210.892	13890.32
210.966	14028.86
211.041	14200.47
211.115	14341.47
211.189	14511.39
211.263	14678.56
211.337	14830.74
211.411	14987.89
211.485	15123.09
211.559	15281.44
211.633	15416.41
211.707	15519.07
211.781	15666.13
211.855	15755.83
211.929	15887.56
212.003	16004.5
212.077	16150.3
212.151	16304.77
212.225	16441.6
212.299	16553.8
212.373	16662.05
212.447	16783.75
212.52	16953.83
212.594	17077.3
212.668	17207.52
212.742	17312.2
212.816	17418.76
212.89	17536.21
212.964	17652.49
213.038	17775.24
213.112	17903.38
213.186	18039.67
213.26	18131.81
213.333	18191.62
213.407	18309.64
213.481	18418.12
213.555	18543.8
213.629	18631.51
213.703	18707.84
213.777	18812.36
213.85	18894.43
213.924	19042.09
213.998	19150.95
214.072	19228.87
214.146	19318.84
214.219	19418.41
214.293	19509.53
214.367	19615.5
214.441	19713.48
214.515	19792.08
214.588	19849.37
214.662	19896.12
214.736	19963.25
214.81	20042.14
214.883	20141.84
214.957	20219.38
215.031	20288.15
215.105	20347.38
215.178	20416.44
215.252	20489.6
215.326	20533.45
215.4	20590.51
215.473	20598.32
215.547	20647.91
215.621	20712.21
215.694	20781.66
215.768	20821.71
215.842	20877.18
215.915	20923.64
215.989	20956.12
216.063	21020.13
216.136	21090.6
216.21	21160.91
216.284	21235.77
216.357	21316.02
216.431	21373.33
216.504	21440.42
216.578	21535.57
216.652	21601.12
216.725	21665.08
216.799	21733.63
216.873	21799.56
216.946	21861.69
217.02	21924.79
217.093	21983.65
217.167	22019.32
217.24	22057.26
217.314	22111.15
217.387	22159.54
217.461	22214.4
217.535	22281.41
217.608	22296.78
217.682	22339.06
217.755	22390.26
217.829	22425.36
217.902	22456.55
217.976	22495.21
218.049	22526.11
218.123	22537.2
218.196	22586.81
218.27	22617.86
218.343	22647.03
218.417	22694.47
218.49	22730.1
218.563	22784.48
218.637	22813.7
218.71	22872.14
218.784	22915.25
218.857	22958.01
218.931	22996.97
219.004	23031.3
219.077	23074.65
219.151	23139.6
219.224	23175.37
219.298	23208.93
219.371	23265.4
219.444	23294.91
219.518	23325.29
219.591	23364.06
219.665	23444.07
219.738	23470.3
219.811	23503.77
219.885	23549.92
219.958	23597.37
220.031	23629.44
220.105	23664.55
220.178	23702.22
220.251	23717.75
220.325	23758.31
220.398	23800.07
220.471	23842.51
220.544	23883.12
220.618	23908.39
220.691	23935.26
220.764	23968.25
220.838	24001.33
220.911	24009.1
220.984	24059.11
221.057	24096.93
221.131	24131.27
221.204	24113.56
221.277	24161.32
221.35	24216.26
221.424	24239.27
221.497	24251.52
221.57	24282.44
221.643	24309.5
221.716	24356.78
221.79	24379.06
221.863	24397.54
221.936	24416.21
222.009	24432.32
222.082	24454.56
222.155	24469.99
222.229	24505.98
222.302	24531.07
222.375	24543.13
222.448	24574.29
222.521	24579.4
222.594	24582.54
222.667	24575.45
222.74	24598.7
222.814	24605.26
222.887	24601.11
222.96	24615.2
223.033	24634.16
223.106	24644.63
223.179	24653.55
223.252	24644.43
223.325	24651.81
223.398	24652.44
223.471	24651.81
223.544	24666.05
223.617	24667.35
223.69	24669.76
223.763	24649.01
223.837	24655.19
223.91	24660.83
223.983	24638.64
224.056	24638.84
224.129	24651.81
224.202	24671.2
224.275	24666.33
224.348	24647.23
224.42	24637.53
224.493	24612.16
224.566	24604.15
224.639	24603.95
224.712	24591.36
224.785	24575.92
224.858	24570.23
224.931	24566.42
225.004	24551.9
225.077	24539.31
225.15	24503.37
225.223	24497.29
225.296	24521.66
225.369	24496.33
225.442	24490.01
225.514	24492.32
225.587	24483.26
225.66	24486.83
225.733	24478.58
225.806	24476.98
225.879	24478.48
225.952	24453.98
226.025	24459.38
226.097	24458.51
226.17	24449.68
226.243	24422.23
226.316	24409.6
226.389	24403.81
226.461	24397.25
226.534	24397.1
226.607	24389
226.68	24403.03
226.753	24385.38
226.825	24343.6
226.898	24348.57
226.971	24323.63
227.044	24309.5
227.117	24296.57
227.189	24272.59
227.262	24265.55
227.335	24248.19
227.407	24217.94
227.48	24213.17
227.553	24194.6
227.626	24173.52
227.698	24155.67
227.771	24151.23
227.844	24132.71
227.916	24109.22
227.989	24080.62
228.062	24056.4
228.134	24056.26
228.207	24031.76
228.28	24011.6
228.352	23994.43
228.425	23974.07
228.498	23973.54
228.57	23957.33
228.643	23963.46
228.716	23942.09
228.788	23914.55
228.861	23896.47
228.934	23898.54
229.006	23873.27
229.079	23856.05
229.151	23829.77
229.224	23794.03
229.296	23778.89
229.369	23784.34
229.442	23785.11
229.514	23752.03
229.587	23751.5
229.659	23710.55
229.732	23703.17
229.804	23699.94
229.877	23699.7
229.949	23691.6
230.022	23690.1
230.094	23669.22
230.167	23646.02
230.239	23615.01
230.312	23600.06
230.384	23611.83
230.457	23595.68
230.529	23580.25
230.602	23561
230.674	23543.93
230.747	23538.15
230.819	23527.73
230.892	23477.05
230.964	23460.99
231.037	23457.52
231.109	23431.91
231.181	23425.35
231.254	23380.94
231.326	23349.21
231.399	23326.02
231.471	23281.99
231.544	23228.51
231.616	23215.54
231.688	23193.99
231.761	23169.11
231.833	23143.31
231.905	23083.23
231.978	23056.32
232.05	23039.59
232.122	23014.42
232.195	22977.44
232.267	22969.29
232.339	22929.46
232.412	22922.13
232.484	22888.38
232.556	22845.91
232.629	22835.54
232.701	22812.3
232.773	22802.66
232.846	22775.03
232.918	22752.66
232.99	22734.68
233.062	22725.03
233.135	22696.35
233.207	22645.58
233.279	22632.32
233.351	22610.43
233.424	22578.52
233.496	22542.94
233.568	22534.02
233.64	22492.46
233.713	22472.94
233.785	22436.73
233.857	22418.22
233.929	22371.99
234.001	22351.07
234.074	22342.34
234.146	22304.21
234.218	22274.51
234.29	22237.54
234.362	22201
234.434	22140.45
234.507	22099.28
234.579	22048.91
234.651	22007.4
234.723	21983.49
234.795	21956.93
234.867	21912.44
234.939	21898.03
235.012	21863.03
235.084	21842.06
235.156	21816.95
235.228	21772.41
235.3	21735.15
235.372	21708.98
235.444	21683.19
235.516	21631.66
235.588	21591.03
235.66	21545.67
235.732	21494.44
235.804	21518.88
235.876	21493.96
235.948	21492.17
236.02	21456.46
236.092	21423.11
236.164	21382.76
236.236	21338.04
236.308	21294.13
236.38	21271.77
236.452	21224.1
236.524	21196.63
236.596	21160.09
236.668	21137.44
236.74	21102.16
236.812	21068.52
236.884	21032.37
236.956	20992.41
237.028	20942.15
237.1	20903.78
237.172	20882.63
237.244	20867.49
237.316	20794.13
237.388	20756.4
237.46	20698.47
237.532	20685.12
237.604	20644.44
237.675	20632.39
237.747	20615.09
237.819	20571.28
237.891	20527.28
237.963	20490.22
238.035	20454.42
238.107	20384.54
238.178	20365.84
238.25	20330.66
238.322	20322.56
238.394	20258.27
238.466	20228.44
238.538	20210.51
238.609	20171.33
238.681	20120.78
238.753	20066.81
238.825	20030.04
238.897	19990.57
238.968	19971.15
239.04	19917.27
239.112	19912.55
239.184	19858.38
239.255	19815.68
239.327	19779.15
239.399	19745.23
239.471	19712.12
239.542	19679.88
239.614	19654.53
239.686	19582.01
239.758	19560.71
239.829	19506.83
239.901	19493.24
239.973	19454.54
240.044	19414.35
240.116	19382.98
240.188	19341.1
240.259	19313.73
240.331	19266.46
240.403	19237.21
240.474	19184.97
240.546	19143.77
240.618	19078.42
240.689	19040.11
240.761	18996.35
240.833	18976.07
240.904	18929.56
240.976	18895.93
241.048	18849.52
241.119	18821.33
241.191	18793.72
241.262	18779.64
241.334	18728.9
241.405	18695.89
241.477	18648.57
241.549	18610.26
241.62	18572.19
241.692	18546.84
241.763	18515.76
241.835	18472.34
241.906	18443.86
241.978	18398.41
242.049	18377.06
242.121	18345.6
242.192	18328.92
242.264	18280.73
242.335	18217.84
242.407	18200.25
242.478	18153.17
242.55	18125.75
242.621	18089.41
242.693	18053.42
242.764	18001.37
242.836	17966.19
242.907	17926.34
242.979	17908.36
243.05	17877.81
243.122	17853.09
243.193	17807.74
243.264	17745.18
243.336	17716.56
243.407	17684.9
243.479	17666.73
243.55	17639.11
243.622	17611.74
243.693	17558.78
243.764	17541.77
243.836	17508.99
243.907	17464.37
243.978	17431.07
244.05	17393.28
244.121	17327.74
244.192	17294.97
244.264	17238.78
244.335	17207.84
244.407	17154.97
244.478	17118.97
244.549	17077.04
244.62	17018.91
244.692	16986.43
244.763	16961.9
244.834	16920.12
244.906	16873.85
244.977	16837.08
245.048	16809.94
245.119	16766.13
245.191	16728.06
245.262	16668.3
245.333	16659.24
245.405	16628.82
245.476	16601.35
245.547	16573.93
245.618	16564.39
245.689	16534.17
245.761	16509.83
245.832	16477.2
245.903	16459.8
245.974	16429.24
246.045	16397.58
246.117	16386.2
246.188	16329.52
246.259	16291.11
246.33	16259.73
246.401	16222.43
246.473	16178.18
246.544	16127.14
246.615	16101.79
246.686	16062.51
246.757	16050.65
246.828	16004.14
246.899	15989.1
246.97	15939.12
247.042	15894.72
247.113	15861.18
247.184	15851.39
247.255	15808.21
247.326	15773.12
247.397	15737.88
247.468	15707.04
247.539	15671.9
247.61	15631.46
247.681	15622.88
247.752	15607.84
247.823	15568.7
247.894	15542.04
247.965	15504.16
248.037	15470.85
248.108	15427.33
248.179	15399.32
248.25	15367.8
248.321	15336.03
248.392	15286.38
248.463	15284.6
248.534	15251.63
248.605	15235.82
248.675	15196.25
248.746	15178.41
248.817	15151.27
248.888	15121.73
248.959	15076.27
249.03	15062.82
249.101	15032.79
249.172	15000.3
249.243	14947.33
249.314	14928.14
249.385	14893
249.456	14869.24
249.527	14842.39
249.598	14822.82
249.669	14798.57
249.739	14775.58
249.81	14761.21
249.881	14719.9
249.952	14691.17
250.023	14666.92
250.094	14616.6
250.165	14576.06
250.235	14540.48
250.306	14517.25
250.377	14477.43
250.448	14455.4
250.519	14397.22
250.59	14386.56
250.66	14360
250.731	14348.19
250.802	14326.79
250.873	14308.52
250.944	14290.59
251.014	14255.93
251.085	14251.3
251.156	14223.87
251.227	14211.58
251.297	14201.7
251.368	14186.51
251.439	14168.1
251.51	14149.63
251.58	14114.15
251.651	14082.43
251.722	14069.85
251.792	14022.27
251.863	13992.43
251.934	13987.52
252.005	14000.97
252.075	13979.08
252.146	13956.47
252.217	13946.73
252.287	13930.2
252.358	13908.17
252.429	13898.58
252.499	13874.09
252.57	13852.59
252.641	13845.79
252.711	13812.72
252.782	13760.8
252.852	13758.92
252.923	13722.72
252.994	13702.76
253.064	13697.31
253.135	13664.34
253.205	13639.37
253.276	13647.08
253.347	13647.71
253.417	13606.54
253.488	13575.98
253.558	13540.74
253.629	13517.31
253.699	13501.64
253.77	13486.55
253.841	13451.89
253.911	13431.55
253.982	13403.25
254.052	13384.12
254.123	13361.22
254.193	13344.3
254.264	13367.68
254.334	13337.64
254.405	13308.87
254.475	13279.32
254.546	13253.04
254.616	13254.25
254.687	13235.16
254.757	13209.13
254.827	13184.69
254.898	13171.19
254.968	13144.43
255.039	13115.61
255.109	13111.32
255.18	13071.59
255.25	13022.62
255.321	13020.64
255.391	12978.46
255.461	12985.69
255.532	12937.87
255.602	12906.05
255.673	12863.15
255.743	12827.77
255.813	12771.85
255.884	12766.64
255.954	12749.48
256.024	12749.77
256.095	12725.77
256.165	12690.77
256.235	12681.85
256.306	12655.24
256.376	12649.02
256.446	12640.97
256.517	12628.25
256.587	12612.97
256.657	12592.62
256.728	12573.29
256.798	12546.01
256.868	12525.14
256.938	12497.56
257.009	12489.03
257.079	12486.28
257.149	12496.94
257.219	12458.37
257.29	12450.57
257.36	12402.55
257.43	12394.94
257.5	12356.71
257.571	12327.26
257.641	12317.28
257.711	12275.1
257.781	12256.79
257.852	12235.77
257.922	12191.04
257.992	12178.7
258.062	12157.39
258.132	12153.1
258.202	12136.38
258.273	12124.18
258.343	12122.78
258.413	12098.59
258.483	12078.77
258.553	12046.33
258.623	12017.32
258.693	12001.22
258.764	12001.12
258.834	12007.1
258.904	11979.52
258.974	11945.21
259.044	11927.52
259.114	11915.13
259.184	11901.54
259.254	11887.66
259.324	11843.99
259.394	11837.29
259.464	11831.7
259.535	11810.39
259.605	11778.48
259.675	11753.42
259.745	11737.9
259.815	11707.15
259.885	11676.78
259.955	11689.41
260.025	11661.99
260.095	11642.42
260.165	11628.73
260.235	11628.97
260.305	11597.5
260.375	11572.97
260.445	11577.64
260.515	11584.92
260.585	11571.76
260.655	11554.75
260.725	11547.18
260.795	11542.17
260.865	11545.78
260.934	11517.64
261.004	11506.7
261.074	11497.3
261.144	11496.67
261.214	11492.96
261.284	11477.97
261.354	11475.37
261.424	11443.94
261.494	11454.4
261.564	11438.45
261.634	11428.28
261.703	11386.88
261.773	11382.3
261.843	11377.58
