Data from 20250703_urea_0.1M_MAYP1162681_23-31-05-151.txt Node
Date: Thu Jul 03 23:31:05 BST 2025
User: adleo
Spectrometer: MAYP116268
Trigger mode: 0
Integration Time (sec): 1.000000E0
Scans to average: 1
Electric dark correction enabled: true
Nonlinearity correction enabled: true
Boxcar width: 10
XAxis mode: Wavelengths
Number of Pixels in Spectrum: 2068
>>>>>Begin Spectral Data<<<<<
179.565	1363.74
179.642	1428.44
179.718	1477.19
179.795	1525.19
179.871	1562.66
179.948	1583.27
180.024	1607.69
180.101	1635
180.177	1650.91
180.254	1676.28
180.33	1700.32
180.407	1767.95
180.483	1877
180.56	1983.01
180.636	2079.12
180.712	2067.36
180.789	2081.44
180.865	2094.95
180.942	2103.55
181.018	2112.69
181.095	2128.48
181.171	2131.58
181.248	2132.91
181.324	2151.7
181.4	2157.94
181.477	2169.88
181.553	2183.2
181.63	2205.61
181.706	2223.84
181.782	2232.92
181.859	2232.73
181.935	2239.82
182.011	2233.39
182.088	2249.77
182.164	2268.29
182.24	2283.08
182.317	2290.46
182.393	2286.84
182.469	2302.45
182.546	2318.01
182.622	2325.43
182.698	2318.96
182.775	2333.76
182.851	2350.76
182.927	2339.86
183.003	2333.96
183.08	2328.86
183.156	2343.67
183.232	2338.81
183.308	2326.24
183.385	2337.47
183.461	2353.89
183.537	2353.51
183.613	2367.98
183.69	2360.37
183.766	2347.32
183.842	2355.75
183.918	2363.27
183.995	2379.69
184.071	2382.5
184.147	2378.64
184.223	2363.8
184.299	2378.89
184.375	2365.89
184.452	2371.75
184.528	2429.13
184.604	2442.41
184.68	2454.4
184.756	2459.74
184.832	2467.5
184.908	2472.83
184.985	2470.97
185.061	2457.93
185.137	2471.17
185.213	2460.55
185.289	2458.31
185.365	2454.03
185.441	2452.22
185.517	2467.65
185.593	2463.23
185.669	2459.56
185.745	2467.03
185.822	2485.92
185.898	2477.64
185.974	2487.3
186.05	2477.97
186.126	2440.25
186.202	2432.2
186.278	2426.73
186.354	2415.87
186.43	2422.59
186.506	2420.64
186.582	2420.07
186.658	2426.21
186.734	2400.93
186.81	2402.98
186.886	2405.03
186.962	2415.88
187.038	2413.74
187.114	2404.83
187.19	2413.16
187.266	2403.88
187.341	2407.45
187.417	2399.98
187.493	2401.6
187.569	2404.03
187.645	2398.65
187.721	2384.79
187.797	2393.26
187.873	2398.45
187.949	2391.17
188.025	2384.45
188.101	2388.31
188.176	2391.74
188.252	2385.17
188.328	2394.3
188.404	2394.64
188.48	2393.21
188.556	2386.02
188.632	2384.93
188.707	2384.93
188.783	2381.88
188.859	2375.5
188.935	2363.17
189.011	2374.17
189.086	2363.13
189.162	2355.79
189.238	2350.89
189.314	2348.99
189.39	2342.66
189.465	2334.61
189.541	2354.75
189.617	2338.33
189.693	2330.38
189.768	2337.81
189.844	2367.57
189.92	2360.63
189.996	2372.38
190.071	2383.1
190.147	2382.38
190.223	2389.48
190.298	2382.29
190.374	2367.77
190.45	2381.09
190.526	2391.9
190.601	2384.33
190.677	2390.13
190.753	2420.95
190.828	2424.9
190.904	2439.9
190.98	2456.09
191.055	2470.33
191.131	2456.95
191.207	2480.18
191.282	2495.32
191.358	2484.37
191.433	2465.84
191.509	2478.73
191.585	2472.83
191.66	2474.73
191.736	2482.02
191.811	2473.3
191.887	2488.45
191.963	2513.97
192.038	2521.87
192.114	2521.59
192.189	2525.73
192.265	2519.92
192.34	2495.67
192.416	2495.63
192.491	2490.58
192.567	2494.29
192.642	2497.1
192.718	2502.67
192.793	2489.58
192.869	2481.53
192.944	2483.06
193.02	2493.68
193.095	2498.82
193.171	2504.34
193.246	2506.63
193.322	2502.77
193.397	2503.67
193.473	2490.62
193.548	2471.1
193.624	2473.34
193.699	2472.67
193.775	2489.1
193.85	2492.96
193.925	2501.48
194.001	2502.05
194.076	2495.96
194.152	2483.58
194.227	2474.29
194.302	2461.58
194.378	2465.72
194.453	2462.44
194.529	2477.34
194.604	2460.39
194.679	2452.87
194.755	2431.02
194.83	2442.84
194.905	2444.55
194.981	2455.22
195.056	2449.98
195.131	2457.6
195.207	2458.55
195.282	2449.55
195.357	2429.17
195.433	2445.98
195.508	2433.69
195.583	2441.55
195.659	2457.02
195.734	2467.03
195.809	2464.88
195.884	2476.83
195.96	2476.83
196.035	2495.49
196.11	2490.83
196.185	2505.16
196.261	2510.73
196.336	2547.06
196.411	2530.1
196.486	2536.91
196.561	2529.76
196.637	2538.91
196.712	2555.1
196.787	2560.34
196.862	2574.53
196.937	2585.63
197.013	2589.58
197.088	2602.39
197.163	2624.93
197.238	2644.09
197.313	2643.57
197.388	2658.19
197.464	2688.45
197.539	2697.4
197.614	2689.16
197.689	2703.5
197.764	2720.37
197.839	2742.05
197.914	2734.23
197.989	2759.58
198.065	2773.11
198.14	2830.24
198.215	2858.45
198.29	2872.28
198.365	2886.01
198.44	2900.16
198.515	2931.14
198.59	2949.5
198.665	2977.15
198.74	2989.98
198.815	2989.78
198.89	3016.86
198.965	3050.77
199.04	3044
199.115	3064.11
199.19	3112.22
199.265	3113.84
199.34	3124.34
199.415	3165.8
199.49	3189.35
199.565	3199.56
199.64	3224.79
199.715	3219.73
199.79	3228.98
199.865	3235.9
199.94	3232.52
200.015	3264.48
200.09	3271.4
200.165	3277.7
200.24	3284.52
200.315	3326.79
200.39	3343.49
200.464	3345.68
200.539	3347.54
200.614	3366.96
200.689	3392.97
200.764	3397.98
200.839	3418.77
200.914	3426.17
200.989	3411.36
201.063	3428.78
201.138	3407.85
201.213	3410.05
201.288	3387.29
201.363	3391.63
201.438	3393.16
201.512	3414.14
201.587	3397.87
201.662	3399.97
201.737	3414.43
201.812	3422.64
201.886	3386.96
201.961	3399.99
202.036	3392.74
202.111	3389.45
202.186	3360.98
202.26	3343.08
202.335	3321.08
202.41	3314.93
202.485	3297.71
202.559	3277
202.634	3251.47
202.709	3268.11
202.784	3250.13
202.858	3256.42
202.933	3239.25
203.008	3237.58
203.082	3218.31
203.157	3222.03
203.232	3180.12
203.306	3163.23
203.381	3134.12
203.456	3116
203.53	3099
203.605	3083.12
203.68	3068.29
203.754	3072.24
203.829	3064.94
203.904	3054.79
203.978	3056.98
204.053	3075.87
204.127	3078.21
204.202	3092.8
204.277	3088.51
204.351	3098.1
204.426	3109.55
204.5	3123.67
204.575	3106.98
204.65	3140.86
204.724	3159.77
204.799	3198.29
204.873	3226.64
204.948	3259.71
205.022	3278.88
205.097	3304.24
205.171	3355.73
205.246	3401.76
205.32	3444.6
205.395	3488.58
205.469	3525.61
205.544	3579.97
205.618	3611.83
205.693	3678.8
205.767	3718.35
205.842	3802.78
205.916	3857.01
205.991	3912.45
206.065	3979.08
206.14	4063.39
206.214	4128.87
206.289	4190.05
206.363	4278.04
206.438	4355.04
206.512	4439.43
206.586	4541.33
206.661	4631.77
206.735	4692.34
206.81	4781.7
206.884	4887.99
206.958	4966.8
207.033	5076.39
207.107	5179.82
207.181	5308.93
207.256	5401.15
207.33	5525.28
207.405	5643.92
207.479	5772.82
207.553	5884.56
207.628	5975.67
207.702	6095.4
207.776	6191.16
207.851	6307.88
207.925	6435.59
207.999	6545.59
208.073	6661.74
208.148	6782.68
208.222	6893.03
208.296	7055.7
208.371	7196.77
208.445	7328.41
208.519	7484.99
208.593	7624.24
208.668	7746.48
208.742	7875.92
208.816	8007.01
208.89	8148.58
208.965	8273.85
209.039	8406.12
209.113	8552.25
209.187	8706.77
209.261	8836.94
209.336	8998.26
209.41	9150.19
209.484	9285.1
209.558	9439.6
209.632	9581.59
209.707	9730.16
209.781	9888.03
209.855	10034.12
209.929	10182.75
210.003	10318.69
210.077	10450.84
210.151	10637.88
210.226	10806.14
210.3	10969.26
210.374	11115.74
210.448	11253.75
210.522	11388.74
210.596	11529.08
210.67	11668.93
210.744	11845.62
210.818	12005.19
210.892	12154.27
210.966	12276.02
211.041	12422.7
211.115	12548.7
211.189	12702.51
211.263	12846.64
211.337	12967.97
211.411	13102.89
211.485	13218.68
211.559	13348.5
211.633	13466.26
211.707	13546.81
211.781	13673.06
211.855	13752.36
211.929	13863.77
212.003	13959.79
212.077	14087.39
212.151	14214.56
212.225	14330.39
212.299	14427.67
212.373	14529.33
212.447	14627.67
212.52	14768.62
212.594	14876.4
212.668	14995.42
212.742	15087.1
212.816	15180.08
212.89	15280.05
212.964	15379.97
213.038	15487.41
213.112	15605.26
213.186	15716.27
213.26	15788.28
213.333	15831.33
213.407	15926.86
213.481	16030.2
213.555	16145.21
213.629	16226.85
213.703	16308.98
213.777	16412.32
213.85	16489.38
213.924	16617.92
213.998	16716.09
214.072	16800.72
214.146	16878.22
214.219	16951.91
214.293	17035
214.367	17120.11
214.441	17217.22
214.515	17283.05
214.588	17343.15
214.662	17391.49
214.736	17461.37
214.81	17550.48
214.883	17641.66
214.957	17713.18
215.031	17775.74
215.105	17815.83
215.178	17876.65
215.252	17935.59
215.326	17973.71
215.4	18018.96
215.473	18030.57
215.547	18079.25
215.621	18125.27
215.694	18192.25
215.768	18237.89
215.842	18290.27
215.915	18343.47
215.989	18369.3
216.063	18417.59
216.136	18477.15
216.21	18531.99
216.284	18600.95
216.357	18661.48
216.431	18712.47
216.504	18774.82
216.578	18860.94
216.652	18932.36
216.725	18992.35
216.799	19063.67
216.873	19115.82
216.946	19174.61
217.02	19225.4
217.093	19273.35
217.167	19294.94
217.24	19331.56
217.314	19386.4
217.387	19419.65
217.461	19461.24
217.535	19537.77
217.608	19583.79
217.682	19634.58
217.755	19693.37
217.829	19722.77
217.902	19770.77
217.976	19812.45
218.049	19849.99
218.123	19872.02
218.196	19923.82
218.27	19961.8
218.343	19984.06
218.417	20042.47
218.49	20093.12
218.563	20149.21
218.637	20197.98
218.71	20269.36
218.784	20319.14
218.857	20372.83
218.931	20435.19
219.004	20483.72
219.077	20529.36
219.151	20579.33
219.224	20617.17
219.298	20663.34
219.371	20727.92
219.444	20763.72
219.518	20812.54
219.591	20861.51
219.665	20934.24
219.738	20978.77
219.811	21005.47
219.885	21060.32
219.958	21099.31
220.031	21148.18
220.105	21198.11
220.178	21236.09
220.251	21266.84
220.325	21311.48
220.398	21348.54
220.471	21386.47
220.544	21428.55
220.618	21449.03
220.691	21485.42
220.764	21529.14
220.838	21569.48
220.911	21597.88
220.984	21651.96
221.057	21693.94
221.131	21728.93
221.204	21728.21
221.277	21777.09
221.35	21853.06
221.424	21873.49
221.497	21907.48
221.57	21922.95
221.643	21963.1
221.716	22005.96
221.79	22032.42
221.863	22063.37
221.936	22101.65
222.009	22131.44
222.082	22161.08
222.155	22193.09
222.229	22245.4
222.302	22265.69
222.375	22291.96
222.448	22320.31
222.521	22338.53
222.594	22366.73
222.667	22377.82
222.74	22416.77
222.814	22426.51
222.887	22429.93
222.96	22466.52
223.033	22502.01
223.106	22528.42
223.179	22552.68
223.252	22563.81
223.325	22591.15
223.398	22597.41
223.471	22614.38
223.544	22630.63
223.617	22646.59
223.69	22662.31
223.763	22653.58
223.837	22667.75
223.91	22686.8
223.983	22681.11
224.056	22681.2
224.129	22695.81
224.202	22715.87
224.275	22715.53
224.348	22718.81
224.42	22715.63
224.493	22707.82
224.566	22698.61
224.639	22721.41
224.712	22724.11
224.785	22727.78
224.858	22731.2
224.931	22736.65
225.004	22720.79
225.077	22728.55
225.15	22709.02
225.223	22706.13
225.296	22737.04
225.369	22721.22
225.442	22698.47
225.514	22708.16
225.587	22715
225.66	22711.63
225.733	22720.07
225.806	22724.21
225.879	22722.72
225.952	22714.95
226.025	22725.8
226.097	22747.45
226.17	22733.47
226.243	22697.84
226.316	22707.05
226.389	22708.69
226.461	22710.47
226.534	22720.55
226.607	22708.01
226.68	22734.87
226.753	22744.32
226.825	22711.1
226.898	22745.91
226.971	22754.92
227.044	22758.68
227.117	22757.96
227.189	22758.11
227.262	22763.22
227.335	22762.49
227.407	22756.8
227.48	22764.04
227.553	22764.13
227.626	22751.93
227.698	22749.14
227.771	22758.78
227.844	22735.3
227.916	22718.86
227.989	22696.78
228.062	22683.95
228.134	22699.57
228.207	22689.98
228.28	22660.43
228.352	22652.76
228.425	22639.02
228.498	22642.39
228.57	22619.4
228.643	22631.89
228.716	22611.64
228.788	22592.11
228.861	22585.31
228.934	22586.52
229.006	22565.31
229.079	22547.66
229.151	22528.42
229.224	22504.71
229.296	22507.84
229.369	22523.89
229.442	22533.78
229.514	22528.62
229.587	22534.64
229.659	22514.35
229.732	22500.99
229.804	22519.12
229.877	22541.92
229.949	22538.79
230.022	22545.44
230.094	22527.32
230.167	22505.96
230.239	22497.09
230.312	22489.86
230.384	22508.57
230.457	22500.56
230.529	22501.72
230.602	22492.99
230.674	22488.46
230.747	22490.73
230.819	22476.65
230.892	22435.91
230.964	22418.51
231.037	22413.11
231.109	22393.3
231.181	22386.98
231.254	22357.77
231.326	22329.91
231.399	22306.33
231.471	22274.75
231.544	22229.1
231.616	22224.13
231.688	22211.79
231.761	22192.99
231.833	22177.42
231.905	22116.49
231.978	22101.69
232.05	22086.65
232.122	22076.14
232.195	22050.88
232.267	22046.01
232.339	22018.29
232.412	22011.69
232.484	21995.11
232.556	21967.58
232.629	21969.37
232.701	21946.04
232.773	21931.24
232.846	21906.27
232.918	21881.64
232.99	21869.63
233.062	21864.28
233.135	21851.94
233.207	21811.94
233.279	21792.17
233.351	21771.64
233.424	21750.96
233.496	21705.17
233.568	21704.01
233.64	21658.08
233.713	21627.42
233.785	21601.01
233.857	21580.14
233.929	21536.76
234.001	21525.58
234.074	21518.97
234.146	21477.28
234.218	21455.39
234.29	21428.93
234.362	21404.11
234.434	21362.42
234.507	21317.45
234.579	21270.75
234.651	21238.84
234.723	21230.07
234.795	21217.92
234.867	21187.51
234.939	21176.91
235.012	21155.65
235.084	21116.95
235.156	21101.91
235.228	21066.73
235.3	21030.87
235.372	21008.02
235.444	21000.7
235.516	20957.03
235.588	20931.1
235.66	20897.03
235.732	20861.02
235.804	20897.61
235.876	20884.79
235.948	20869.46
236.02	20835.53
236.092	20814.38
236.164	20784.79
236.236	20747.34
236.308	20717.84
236.38	20697.55
236.452	20652.73
236.524	20635.62
236.596	20629.5
236.668	20603.19
236.74	20584.06
236.812	20563.96
236.884	20547.62
236.956	20523.62
237.028	20472.64
237.1	20432.15
237.172	20420.59
237.244	20403.77
237.316	20329.88
237.388	20278.27
237.46	20240.15
237.532	20224.1
237.604	20178.32
237.675	20165.45
237.747	20150.9
237.819	20098.9
237.891	20054.42
237.963	20021.22
238.035	19974.14
238.107	19888.79
238.178	19869.7
238.25	19830.04
238.322	19811.15
238.394	19757.66
238.466	19712.41
238.538	19689.81
238.609	19656.03
238.681	19592.22
238.753	19555.45
238.825	19517.91
238.897	19497
238.968	19487.46
239.04	19450.83
239.112	19458.01
239.184	19413.68
239.255	19364.52
239.327	19340.48
239.399	19308.91
239.471	19292.62
239.542	19270.6
239.614	19269.88
239.686	19214.8
239.758	19200.82
239.829	19155.67
239.901	19149.21
239.973	19114.18
240.044	19088.11
240.116	19052.21
240.188	19027.77
240.259	18983.44
240.331	18940.26
240.403	18906.33
240.474	18851.64
240.546	18806.68
240.618	18741.43
240.689	18694.06
240.761	18661.82
240.833	18645.96
240.904	18612.62
240.976	18571.41
241.048	18540.33
241.119	18501.59
241.191	18469.01
241.262	18438.6
241.334	18395.38
241.405	18343.72
241.477	18308.1
241.549	18272.64
241.62	18238.66
241.692	18207
241.763	18193.46
241.835	18159.97
241.906	18133.17
241.978	18076.02
242.049	18057.03
242.121	18032.36
242.192	18012.84
242.264	17958.53
242.335	17898.1
242.407	17867.88
242.478	17820.75
242.55	17788.7
242.621	17742.77
242.693	17712.99
242.764	17679.07
242.836	17645.48
242.907	17614.68
242.979	17585.52
243.05	17556.32
243.122	17537.57
243.193	17500.9
243.264	17434.97
243.336	17395.26
243.407	17357.81
243.479	17349.72
243.55	17319.6
243.622	17299.31
243.693	17267.07
243.764	17259.98
243.836	17216.08
243.907	17174.78
243.978	17144.12
244.05	17109.76
244.121	17062.39
244.192	17032.02
244.264	16973.61
244.335	16938.53
244.407	16880.6
244.478	16851.78
244.549	16807.92
244.62	16752.2
244.692	16718.23
244.763	16700.49
244.834	16664.83
244.906	16627.96
244.977	16594.75
245.048	16579.95
245.119	16530.99
245.191	16487.22
245.262	16424.91
245.333	16409.72
245.405	16385.62
245.476	16345.33
245.547	16318.2
245.618	16299.64
245.689	16269.04
245.761	16248.31
245.832	16209.94
245.903	16196.59
245.974	16162.57
246.045	16128.49
246.117	16116.49
246.188	16064.43
246.259	16011.27
246.33	15979.79
246.401	15946.39
246.473	15907.21
246.544	15864.55
246.615	15835.25
246.686	15802.42
246.757	15790.71
246.828	15745.74
246.899	15719.42
246.97	15679.46
247.042	15629.67
247.113	15597.09
247.184	15588.41
247.255	15541.66
247.326	15516.74
247.397	15481.17
247.468	15450.61
247.539	15422.6
247.61	15368.95
247.681	15355.41
247.752	15348.13
247.823	15312.8
247.894	15290.05
247.965	15240.59
248.037	15206.61
248.108	15166.36
248.179	15136.04
248.25	15101.77
248.321	15081.52
248.392	15039.15
248.463	15035.78
248.534	15010.71
248.605	14998.71
248.675	14963.96
248.746	14955.96
248.817	14935.13
248.888	14911.7
248.959	14867.26
249.03	14848.99
249.101	14825.85
249.172	14795.53
249.243	14737.83
249.314	14728.72
249.385	14696.95
249.456	14683.65
249.527	14644.75
249.598	14622.14
249.669	14592.83
249.739	14563.72
249.81	14543.13
249.881	14504.86
249.952	14486.73
250.023	14455.01
250.094	14407.87
250.165	14363.23
250.235	14321.82
250.306	14283.79
250.377	14238.72
250.448	14216.64
250.519	14165.88
250.59	14158.02
250.66	14121.38
250.731	14113.67
250.802	14081.76
250.873	14054.76
250.944	14028.15
251.014	13998.12
251.085	13996.39
251.156	13972.86
251.227	13970.79
251.297	13954.5
251.368	13945.1
251.439	13919.4
251.51	13912.7
251.58	13879.1
251.651	13850.37
251.722	13840.68
251.792	13804.96
251.863	13776.47
251.934	13773
252.005	13785.1
252.075	13756.13
252.146	13749.38
252.217	13742.24
252.287	13731.25
252.358	13699.58
252.429	13698.33
252.499	13668.58
252.57	13641.2
252.641	13629.29
252.711	13597
252.782	13558.19
252.852	13547.68
252.923	13529.27
252.994	13501.16
253.064	13492.15
253.135	13456.04
253.205	13427.21
253.276	13428.08
253.347	13424.95
253.417	13388.74
253.488	13352.01
253.558	13324.29
253.629	13298.31
253.699	13278.06
253.77	13260.9
253.841	13246.44
253.911	13226.48
253.982	13207.87
254.052	13198.38
254.123	13180.88
254.193	13162.12
254.264	13185.84
254.334	13166.27
254.405	13125.63
254.475	13095.75
254.546	13072.27
254.616	13077.38
254.687	13063.88
254.757	13045.51
254.827	13021.51
254.898	13004.44
254.968	12981.11
255.039	12948.09
255.109	12937.29
255.18	12901.43
255.25	12845.27
255.321	12831.77
255.391	12788.82
255.461	12789.83
255.532	12729.72
255.602	12701.28
255.673	12653.8
255.743	12615.76
255.813	12562.5
255.884	12565.82
255.954	12554.54
256.024	12553.53
256.095	12525.52
256.165	12487.1
256.235	12473.27
256.306	12445.89
256.376	12439
256.446	12433.02
256.517	12423.86
256.587	12424.92
256.657	12411.04
256.728	12403.28
256.798	12375.03
256.868	12352.62
256.938	12326.54
257.009	12331.41
257.079	12319.35
257.149	12337.09
257.219	12290.14
257.29	12283.15
257.36	12231.43
257.43	12216.92
257.5	12169.35
257.571	12143.61
257.641	12133.24
257.711	12100.37
257.781	12094.54
257.852	12073.14
257.922	12036.31
257.992	12022.28
258.062	11990.32
258.132	11982.42
258.202	11959.28
258.273	11942.17
258.343	11946.03
258.413	11911.08
258.483	11888.28
258.553	11855.07
258.623	11822.01
258.693	11812.08
258.764	11807.93
258.834	11810.1
258.904	11794.72
258.974	11773.66
259.044	11747.01
259.114	11734.62
259.184	11717.7
259.254	11686.28
259.324	11649.26
259.394	11641.21
259.464	11639
259.535	11618.13
259.605	11594.7
259.675	11572.77
259.745	11561.06
259.815	11533.73
259.885	11520.04
259.955	11529.4
260.025	11496.34
260.095	11475.08
260.165	11467.9
260.235	11469.01
260.305	11435.71
260.375	11399.61
260.445	11406.4
260.515	11416.57
260.585	11415.8
260.655	11401.15
260.725	11402.02
260.795	11396.43
260.865	11394.84
260.934	11363.32
261.004	11349.44
261.074	11330.49
261.144	11326.21
261.214	11320.95
261.284	11294.16
261.354	11282.49
261.424	11256.13
261.494	11266.06
261.564	11251.74
261.634	11244.42
261.703	11194.78
261.773	11187.02
261.843	11190.39
261.913	11171.79
