Data from 20250703_urea_0.1M_MAYP1162681_01-41-05-561.txt Node
Date: Fri Jul 04 01:41:05 BST 2025
User: adleo
Spectrometer: MAYP116268
Trigger mode: 0
Integration Time (sec): 1.000000E0
Scans to average: 1
Electric dark correction enabled: true
Nonlinearity correction enabled: true
Boxcar width: 10
XAxis mode: Wavelengths
Number of Pixels in Spectrum: 2068
>>>>>Begin Spectral Data<<<<<
179.565	1337.71
179.642	1401.72
179.718	1449.74
179.795	1493.82
179.871	1527.7
179.948	1547.8
180.024	1572.11
180.101	1598.21
180.177	1613.89
180.254	1640.24
180.33	1665.22
180.407	1730.19
180.483	1836.33
180.56	1937.11
180.636	2030.79
180.712	2016.38
180.789	2025.08
180.865	2035.16
180.942	2043.86
181.018	2054.28
181.095	2072.64
181.171	2080.11
181.248	2079.21
181.324	2094.15
181.4	2103.47
181.477	2116.55
181.553	2128.92
181.63	2151.09
181.706	2168.03
181.782	2177.11
181.859	2177.54
181.935	2183.67
182.011	2175.87
182.088	2192.43
182.164	2214.52
182.24	2230.74
182.317	2240.44
182.393	2238.92
182.469	2256.81
182.546	2274.7
182.622	2280.51
182.698	2270.51
182.775	2281.51
182.851	2298.73
182.927	2291.55
183.003	2284.32
183.08	2278.32
183.156	2289.6
183.232	2284.6
183.308	2271.66
183.385	2281.55
183.461	2299.21
183.537	2298.83
183.613	2316.34
183.69	2308.2
183.766	2296.16
183.842	2300.73
183.918	2305.06
183.995	2322.38
184.071	2327.48
184.147	2320
184.223	2306.83
184.299	2324.63
184.375	2314.97
184.452	2323.11
184.528	2376.24
184.604	2388.18
184.68	2403.13
184.756	2409.93
184.832	2417.17
184.908	2421.59
184.985	2418.45
185.061	2397.75
185.137	2408.7
185.213	2396.18
185.289	2397.37
185.365	2387.52
185.441	2387.28
185.517	2401.85
185.593	2395
185.669	2389.71
185.745	2399.62
185.822	2418.5
185.898	2406.36
185.974	2414.45
186.05	2401.88
186.126	2366.42
186.202	2361.42
186.278	2356.04
186.354	2347.71
186.43	2354.52
186.506	2353.38
186.582	2355.23
186.658	2364.22
186.734	2343.38
186.81	2345.23
186.886	2347.71
186.962	2360.61
187.038	2358.23
187.114	2350.27
187.19	2357.46
187.266	2345.52
187.341	2346.71
187.417	2340.47
187.493	2342.38
187.569	2347.18
187.645	2344.61
187.721	2330.47
187.797	2337.52
187.873	2342.57
187.949	2334.86
188.025	2327.81
188.101	2331.66
188.176	2336.47
188.252	2330.38
188.328	2338.04
188.404	2338.66
188.48	2332
188.556	2326.57
188.632	2327.95
188.707	2328.62
188.783	2326.38
188.859	2321.34
188.935	2309.39
189.011	2317.67
189.086	2311.48
189.162	2301.77
189.238	2298.39
189.314	2298.25
189.39	2290.35
189.465	2281.64
189.541	2299.54
189.617	2282.93
189.693	2276.98
189.768	2280.5
189.844	2310.74
189.92	2302.6
189.996	2311.03
190.071	2322.83
190.147	2319.97
190.223	2325.73
190.298	2317.74
190.374	2304.27
190.45	2316.5
190.526	2326.3
190.601	2319.73
190.677	2322.02
190.753	2352.54
190.828	2354.92
190.904	2373.06
190.98	2389.06
191.055	2400.15
191.131	2389.53
191.207	2413.81
191.282	2424.56
191.358	2413.95
191.433	2397.09
191.509	2410.6
191.585	2410.13
191.66	2413.98
191.736	2422.31
191.811	2412.98
191.887	2428.69
191.963	2454.26
192.038	2459.97
192.114	2459.64
192.189	2462.26
192.265	2458.12
192.34	2434.78
192.416	2432.06
192.491	2422.16
192.567	2425.68
192.642	2426.87
192.718	2429.02
192.793	2413.68
192.869	2407.78
192.944	2410.3
193.02	2418.26
193.095	2425.35
193.171	2425.92
193.246	2424.97
193.322	2420.92
193.397	2424.73
193.473	2412.02
193.548	2394.16
193.624	2399.44
193.699	2395.54
193.775	2415.35
193.85	2414.78
193.925	2424.31
194.001	2426.11
194.076	2422.4
194.152	2409.69
194.227	2405.59
194.302	2396.98
194.378	2401.26
194.453	2398.65
194.529	2414.64
194.604	2398.46
194.679	2391.22
194.755	2376.42
194.83	2389.23
194.905	2391.18
194.981	2396.94
195.056	2389.23
195.131	2394.76
195.207	2394.23
195.282	2386.19
195.357	2363.14
195.433	2380.04
195.508	2367.14
195.583	2375.7
195.659	2391.56
195.734	2401.42
195.809	2399.32
195.884	2407.03
195.96	2407.27
196.035	2425.17
196.11	2417.74
196.185	2430.07
196.261	2432.73
196.336	2464.44
196.411	2450.11
196.486	2456.1
196.561	2451.96
196.637	2459.77
196.712	2475.39
196.787	2479.96
196.862	2496.86
196.937	2510.48
197.013	2516.15
197.088	2528.24
197.163	2550.82
197.238	2568.74
197.313	2568.22
197.388	2581.46
197.464	2614.85
197.539	2625.8
197.614	2620.19
197.689	2636.81
197.764	2657.39
197.839	2679.35
197.914	2672.49
197.989	2696.31
198.065	2708.46
198.14	2763.57
198.215	2793.68
198.29	2806.7
198.365	2821.66
198.44	2832.9
198.515	2862.93
198.59	2878.42
198.665	2906.21
198.74	2915.17
198.815	2914.84
198.89	2938.52
198.965	2972.57
199.04	2966.28
199.115	2985.15
199.19	3030.34
199.265	3033.15
199.34	3040.73
199.415	3077.18
199.49	3101.78
199.565	3112.18
199.64	3137.97
199.715	3130.38
199.79	3137.58
199.865	3145.74
199.94	3146.12
200.015	3178.51
200.09	3180.89
200.165	3189.28
200.24	3197.01
200.315	3242.42
200.39	3259.55
200.464	3267.23
200.539	3265.03
200.614	3286.3
200.689	3314.65
200.764	3318.56
200.839	3337.25
200.914	3346.56
200.989	3331.9
201.063	3344.78
201.138	3324.28
201.213	3325.38
201.288	3307.16
201.363	3312.17
201.438	3313.03
201.512	3326.62
201.587	3311.44
201.662	3317.07
201.737	3329.91
201.812	3336.07
201.886	3297.96
201.961	3306.55
202.036	3296.06
202.111	3294.53
202.186	3262.92
202.26	3242.25
202.335	3223.5
202.41	3217.35
202.485	3197.27
202.559	3181
202.634	3154.44
202.709	3168.4
202.784	3151.95
202.858	3158.24
202.933	3143.74
203.008	3137.69
203.082	3122.52
203.157	3128.39
203.232	3087.96
203.306	3070.41
203.381	3045.74
203.456	3028.91
203.53	3010.92
203.605	2997.09
203.68	2980.97
203.754	2984.31
203.829	2978.49
203.904	2966.28
203.978	2966.76
204.053	2985.26
204.127	2985.12
204.202	2999.81
204.277	2994.94
204.351	3006.01
204.426	3013.21
204.5	3023.66
204.575	3009.07
204.65	3043.09
204.724	3057.74
204.799	3091.39
204.873	3116.49
204.948	3143.3
205.022	3163.23
205.097	3190.49
205.171	3238.34
205.246	3285.65
205.32	3322.8
205.395	3357.31
205.469	3388.7
205.544	3442.62
205.618	3470.07
205.693	3529.37
205.767	3566.76
205.842	3646
205.916	3693.52
205.991	3740.86
206.065	3803.74
206.14	3883.77
206.214	3942.54
206.289	3999.53
206.363	4082.04
206.438	4152.77
206.512	4232.93
206.586	4328.24
206.661	4411.61
206.735	4470.15
206.81	4551.44
206.884	4651.21
206.958	4727.68
207.033	4833.53
207.107	4926.28
207.181	5051.93
207.256	5144.1
207.33	5257.78
207.405	5367.44
207.479	5490.58
207.553	5598.08
207.628	5680.13
207.702	5795.35
207.776	5885.84
207.851	5993.58
207.925	6114.51
207.999	6224.12
208.073	6328.22
208.148	6441.14
208.222	6539.52
208.296	6684.06
208.371	6813.59
208.445	6937.57
208.519	7084.22
208.593	7209.23
208.668	7315.45
208.742	7434.93
208.816	7549.23
208.89	7683.81
208.965	7792.56
209.039	7912.48
209.113	8048.92
209.187	8195.81
209.261	8311.07
209.336	8455.92
209.41	8600.57
209.484	8722.96
209.558	8868.42
209.632	8999.09
209.707	9130.85
209.781	9278.5
209.855	9417.51
209.929	9556.66
210.003	9681.19
210.077	9799.71
210.151	9978.03
210.226	10138.63
210.3	10284.95
210.374	10426.42
210.448	10549.47
210.522	10682.83
210.596	10819.04
210.67	10946.2
210.744	11109.02
210.818	11262.4
210.892	11406.1
210.966	11512.94
211.041	11650.2
211.115	11760.14
211.189	11903.61
211.263	12036.4
211.337	12152.51
211.411	12285.11
211.485	12391.16
211.559	12513.06
211.633	12623.87
211.707	12700.67
211.781	12814.96
211.855	12890.98
211.929	12996.11
212.003	13081.19
212.077	13196.98
212.151	13308.39
212.225	13422.87
212.299	13518.8
212.373	13603.89
212.447	13694.52
212.52	13824.72
212.594	13917.52
212.668	14025.35
212.742	14107.98
212.816	14198.51
212.89	14286.58
212.964	14368.19
213.038	14463.78
213.112	14580.34
213.186	14689.66
213.26	14760.72
213.333	14804.63
213.407	14899.74
213.481	14998.41
213.555	15101.67
213.629	15180.81
213.703	15253.5
213.777	15340.46
213.85	15402.35
213.924	15531.09
213.998	15623.2
214.072	15697.43
214.146	15772.77
214.219	15851.14
214.293	15930.24
214.367	16012.27
214.441	16107.56
214.515	16183.57
214.588	16233.6
214.662	16273.51
214.736	16327.87
214.81	16405.38
214.883	16499.56
214.957	16565.1
215.031	16620.48
215.105	16665.84
215.178	16715.77
215.252	16773.99
215.326	16818.91
215.4	16868.26
215.473	16883.73
215.547	16928.31
215.621	16987.06
215.694	17050.58
215.768	17090.05
215.842	17134.72
215.915	17183.5
215.989	17218.29
216.063	17262.24
216.136	17324.08
216.21	17390.63
216.284	17462.2
216.357	17520.32
216.431	17565.81
216.504	17620.56
216.578	17695.21
216.652	17770.15
216.725	17834.24
216.799	17903.88
216.873	17961.75
216.946	18038.57
217.02	18085.17
217.093	18139.77
217.167	18161.56
217.24	18193.46
217.314	18243.82
217.387	18293.55
217.461	18338.66
217.535	18400.15
217.608	18434.51
217.682	18483.37
217.755	18531.42
217.829	18566.98
217.902	18621.53
217.976	18673.14
218.049	18712.9
218.123	18742.01
218.196	18788.8
218.27	18832.07
218.343	18860.55
218.417	18905.52
218.49	18942.53
218.563	19006.47
218.637	19042.71
218.71	19113.89
218.784	19171.67
218.857	19229.78
218.931	19270.7
219.004	19312.82
219.077	19363.75
219.151	19416.33
219.224	19457.68
219.298	19500.08
219.371	19557.19
219.444	19585.96
219.518	19639.64
219.591	19693.08
219.665	19773.52
219.738	19817.13
219.811	19843.83
219.885	19897.51
219.958	19946.81
220.031	19977.31
220.105	20018.47
220.178	20073.84
220.251	20112.4
220.325	20160.59
220.398	20206.08
220.471	20266.08
220.544	20319.24
220.618	20338.85
220.691	20389.45
220.764	20428.34
220.838	20474.17
220.911	20509.16
220.984	20573.4
221.057	20613.55
221.131	20647.67
221.204	20648.25
221.277	20709.41
221.35	20783.53
221.424	20813.85
221.497	20856.35
221.57	20896.45
221.643	20939.59
221.716	20975.93
221.79	20998.92
221.863	21032.99
221.936	21069.23
222.009	21102.1
222.082	21128.03
222.155	21162.78
222.229	21199.41
222.302	21242.84
222.375	21269.2
222.448	21301.21
222.521	21326.17
222.594	21340.82
222.667	21351.43
222.74	21377.12
222.814	21389.36
222.887	21403.63
222.96	21436.59
223.033	21470.34
223.106	21499.64
223.179	21513.81
223.252	21535.6
223.325	21563.26
223.398	21579.03
223.471	21590.26
223.544	21616.72
223.617	21637.4
223.69	21667.57
223.763	21677.93
223.837	21700.35
223.91	21721.31
223.983	21717.22
224.056	21712.69
224.129	21737.37
224.202	21781.32
224.275	21796.7
224.348	21801.14
224.42	21797.47
224.493	21786.63
224.566	21784.17
224.639	21806.77
224.712	21816.32
224.785	21830.15
224.858	21835.36
224.931	21832.13
225.004	21835.75
225.077	21836.18
225.15	21824.18
225.223	21831.17
225.296	21868.82
225.369	21851.17
225.442	21846.06
225.514	21863.51
225.587	21884.82
225.66	21891.66
225.733	21899.38
225.806	21914.7
225.879	21917.02
225.952	21910.37
226.025	21942.23
226.097	21955.34
226.17	21957.27
226.243	21944.98
226.316	21936.49
226.389	21943
226.461	21963.78
226.534	21966.77
226.607	21969.08
226.68	22000.12
226.753	21993.23
226.825	21967.92
226.898	21991.54
226.971	21994.09
227.044	21994.34
227.117	21994.34
227.189	22009.38
227.262	22007.93
227.335	22020.37
227.407	22026.05
227.48	22045.72
227.553	22041.43
227.626	22031.11
227.698	22015.26
227.771	22029.52
227.844	22018.44
227.916	22021.28
227.989	22007.25
228.062	22001.47
228.134	22017.67
228.207	22003.45
228.28	21997.57
228.352	21990.91
228.425	21989.32
228.498	21999.78
228.57	21983.35
228.643	21991.49
228.716	21979.3
228.788	21974.28
228.861	21954.47
228.934	21954.08
229.006	21944.59
229.079	21937.21
229.151	21922.32
229.224	21917.21
229.296	21906.85
229.369	21937.12
229.442	21944.88
229.514	21929.99
229.587	21947.92
229.659	21917.55
229.732	21918.99
229.804	21923
229.877	21952.31
229.949	21954.33
230.022	21963.49
230.094	21969.9
230.167	21958.91
230.239	21941.07
230.312	21922.66
230.384	21937.27
230.457	21936.16
230.529	21927.82
230.602	21915.86
230.674	21921.36
230.747	21916.06
230.819	21920.15
230.892	21865.59
230.964	21857.35
231.037	21850.65
231.109	21831.65
231.181	21832.14
231.254	21810.16
231.326	21798.73
231.399	21766.39
231.471	21740.45
231.544	21700.83
231.616	21701.12
231.688	21693.6
231.761	21673.5
231.833	21658.32
231.905	21626.5
231.978	21609.54
232.05	21589.92
232.122	21583.22
232.195	21564.76
232.267	21570.06
232.339	21546.2
232.412	21556.61
232.484	21521.95
232.556	21503.11
232.629	21502.92
232.701	21489.42
232.773	21475.68
232.846	21451.83
232.918	21432.16
232.99	21415
233.062	21411.96
233.135	21395.53
233.207	21365.4
233.279	21355.52
233.351	21350.03
233.424	21319.81
233.496	21285.78
233.568	21290.99
233.64	21251.47
233.713	21237.73
233.785	21205.34
233.857	21182.16
233.929	21143.74
234.001	21151.79
234.074	21145.77
234.146	21104.42
234.218	21085.57
234.29	21060.89
234.362	21032.94
234.434	20995.2
234.507	20965.13
234.579	20924.45
234.651	20891.25
234.723	20877.17
234.795	20855.2
234.867	20818.62
234.939	20807.48
235.012	20789.12
235.084	20764.59
235.156	20754.95
235.228	20718.95
235.3	20690.13
235.372	20677.65
235.444	20672.73
235.516	20623.38
235.588	20603.96
235.66	20575.04
235.732	20539.52
235.804	20579.28
235.876	20570.18
235.948	20561.21
236.02	20537.74
236.092	20508.97
236.164	20480.68
236.236	20446.13
236.308	20411.86
236.38	20399.14
236.452	20363
236.524	20341.41
236.596	20334.08
236.668	20315.43
236.74	20288.35
236.812	20262.66
236.884	20237.7
236.956	20193.31
237.028	20151.63
237.1	20114.28
237.172	20108.16
237.244	20102.37
237.316	20021.75
237.388	19972.49
237.46	19927.87
237.532	19912.4
237.604	19875.25
237.675	19857.75
237.747	19832.36
237.819	19793.9
237.891	19757.23
237.963	19713.62
238.035	19670.82
238.107	19590.05
238.178	19563.12
238.25	19527.31
238.322	19522.64
238.394	19468.04
238.466	19445.34
238.538	19425.63
238.609	19400.67
238.681	19347.42
238.753	19295.18
238.825	19263.32
238.897	19237.3
238.968	19223.42
239.04	19177.69
239.112	19175.09
239.184	19131.72
239.255	19099.67
239.327	19071.53
239.399	19032.88
239.471	19016.64
239.542	18999.82
239.614	18990.81
239.686	18935.3
239.758	18914.14
239.829	18864.94
239.901	18848.31
239.973	18807.93
240.044	18779.26
240.116	18741.72
240.188	18707.79
240.259	18669.92
240.331	18632.42
240.403	18619.36
240.474	18575.95
240.546	18537.97
240.618	18476.38
240.689	18438.02
240.761	18400.68
240.833	18383.81
240.904	18353.26
240.976	18317.36
241.048	18281.5
241.119	18247.67
241.191	18226.9
241.262	18216.16
241.334	18176.83
241.405	18141.65
241.477	18105.13
241.549	18060.93
241.62	18024.5
241.692	17997.71
241.763	17985.18
241.835	17954.48
241.906	17907.73
241.978	17866
242.049	17842.68
242.121	17829.38
242.192	17806.05
242.264	17749.47
242.335	17701.43
242.407	17669.62
242.478	17632.41
242.55	17594.78
242.621	17558.29
242.693	17507.45
242.764	17455.6
242.836	17418.92
242.907	17391.21
242.979	17365.04
243.05	17342.78
243.122	17316.08
243.193	17273.14
243.264	17216.32
243.336	17175.26
243.407	17152.7
243.479	17133.19
243.55	17103.06
243.622	17072.12
243.693	17040.94
243.764	17034.68
243.836	16984.89
243.907	16947.2
243.978	16908.5
244.05	16883.25
244.121	16834.71
244.192	16818.76
244.264	16760.06
244.335	16730.47
244.407	16673.12
244.478	16640.2
244.549	16603.28
244.62	16559.95
244.692	16531.51
244.763	16502.26
244.834	16461.15
244.906	16417.67
244.977	16386.11
245.048	16366.25
245.119	16323.45
245.191	16286.53
245.262	16227.25
245.333	16217.22
245.405	16183.24
245.476	16161.7
245.547	16131.09
245.618	16105.93
245.689	16073.35
245.761	16058.84
245.832	16014.02
245.903	15998.21
245.974	15971.6
246.045	15933.24
246.117	15914.2
246.188	15857.76
246.259	15816.06
246.33	15789.7
246.401	15755.72
246.473	15708.38
246.544	15673.2
246.615	15645.77
246.686	15605.67
246.757	15588.75
246.828	15549.32
246.899	15543.59
246.97	15494.47
247.042	15446.94
247.113	15425.69
247.184	15414.21
247.255	15374.3
247.326	15350.06
247.397	15313.81
247.468	15289.61
247.539	15262.19
247.61	15218.18
247.681	15206.95
247.752	15192.63
247.823	15153.15
247.894	15132.18
247.965	15089.33
248.037	15049.23
248.108	15007.92
248.179	14975.19
248.25	14940.33
248.321	14918.26
248.392	14871.5
248.463	14868.9
248.534	14842.39
248.605	14826.58
248.675	14793.56
248.746	14775.14
248.817	14753.74
248.888	14724.38
248.959	14671.65
249.03	14649.23
249.101	14623.73
249.172	14595.39
249.243	14542.41
249.314	14531.85
249.385	14503.12
249.456	14482.73
249.527	14450.72
249.598	14427.3
249.669	14399.24
249.739	14379.24
249.81	14347.23
249.881	14298.92
249.952	14269.71
250.023	14242.72
250.094	14187.81
250.165	14143.46
250.235	14108.32
250.306	14087.35
250.377	14054.43
250.448	14032.54
250.519	13986.07
250.59	13972.24
250.66	13938.59
250.731	13932.71
250.802	13900.17
250.873	13874.04
250.944	13853.21
251.014	13818.94
251.085	13821.01
251.156	13805.34
251.227	13792.09
251.297	13784.38
251.368	13777.14
251.439	13757.57
251.51	13747.64
251.58	13718.28
251.651	13686.27
251.722	13676.49
251.792	13628.76
251.863	13602.35
251.934	13592.9
252.005	13599.45
252.075	13566.34
252.146	13559.25
252.217	13547.49
252.287	13537.51
252.358	13509.02
252.429	13503.14
252.499	13475.66
252.57	13453.92
252.641	13437.48
252.711	13410.1
252.782	13373.12
252.852	13374.72
252.923	13351.91
252.994	13329.06
253.064	13318.36
253.135	13292.52
253.205	13259.02
253.276	13257.38
253.347	13254.97
253.417	13226.58
253.488	13196.16
253.558	13179.67
253.629	13153.74
253.699	13136.43
253.77	13117.97
253.841	13093
253.911	13075.16
253.982	13053.28
254.052	13031.39
254.123	13013.26
254.193	12995.48
254.264	13008.73
254.334	12972.05
254.405	12938.69
254.475	12912.18
254.546	12895.74
254.616	12893.38
254.687	12880.36
254.757	12860.45
254.827	12830.76
254.898	12814.08
254.968	12787.03
255.039	12755.27
255.109	12744.32
255.18	12711.45
255.25	12665.41
255.321	12655.39
255.391	12617.59
255.461	12626.99
255.532	12580.33
255.602	12548.61
255.673	12508.65
255.743	12475.44
255.813	12427.62
255.884	12418.12
255.954	12399.13
256.024	12390.5
256.095	12362.83
256.165	12327.79
256.235	12315.88
256.306	12290.09
256.376	12275.97
256.446	12273.66
256.517	12262.67
256.587	12246.76
256.657	12232.97
256.728	12218.71
256.798	12196.87
256.868	12175.95
256.938	12146.3
257.009	12139.41
257.079	12132.42
257.149	12147.37
257.219	12108.22
257.29	12097.86
257.36	12052.79
257.43	12041.13
257.5	12004.59
257.571	11985.7
257.641	11969.84
257.711	11931.91
257.781	11923.57
257.852	11912.48
257.922	11875.51
257.992	11851.84
258.062	11830.78
258.132	11821.14
258.202	11803.02
258.273	11787.4
258.343	11790.39
258.413	11761.86
258.483	11749.08
258.553	11715.01
258.623	11680.2
258.693	11667.82
258.764	11666.66
258.834	11673.26
258.904	11658.61
258.974	11627.86
259.044	11602.7
259.114	11594.61
259.184	11582.61
259.254	11564.77
259.324	11524.53
259.394	11511.32
259.464	11513.39
259.535	11493.2
259.605	11464.81
259.675	11439.99
259.745	11427.61
259.815	11393.29
259.885	11371.36
259.955	11378.4
260.025	11353.58
260.095	11333.58
260.165	11319.26
260.235	11319.12
260.305	11292.61
260.375	11263.17
260.445	11272.8
260.515	11276.03
260.585	11274.54
260.655	11262.73
260.725	11250.54
260.795	11243.12
260.865	11239.12
260.934	11213.96
261.004	11203.89
261.074	11190.2
261.144	11196.51
261.214	11185.57
261.284	11169.91
261.354	11166.1
261.424	11129.67
261.494	11140.7
261.564	11121.47
261.634	11114.49
261.703	11076.42
261.773	11070.39
261.843	11058.3
261.913	11035.65
