Data from 20250703_urea_0.1M_MAYP1162681_21-11-04-848.txt Node
Date: Thu Jul 03 21:11:04 BST 2025
User: adleo
Spectrometer: MAYP116268
Trigger mode: 0
Integration Time (sec): 1.000000E0
Scans to average: 1
Electric dark correction enabled: true
Nonlinearity correction enabled: true
Boxcar width: 10
XAxis mode: Wavelengths
Number of Pixels in Spectrum: 2068
>>>>>Begin Spectral Data<<<<<
179.565	1383.22
179.642	1447
179.718	1498.29
179.795	1543.39
179.871	1581.41
179.948	1604.5
180.024	1628.34
180.101	1654.75
180.177	1672.65
180.254	1698.8
180.33	1722.46
180.407	1791
180.483	1902.04
180.56	2006.39
180.636	2102.87
180.712	2090.93
180.789	2099.78
180.865	2113.99
180.942	2123.79
181.018	2135.11
181.095	2154.58
181.171	2163.38
181.248	2163.38
181.324	2180.04
181.4	2187.51
181.477	2198.59
181.553	2214.19
181.63	2237.04
181.706	2254.64
181.782	2263.4
181.859	2263.54
181.935	2271.44
182.011	2267.58
182.088	2286.53
182.164	2307.33
182.24	2321.89
182.317	2329.7
182.393	2329.31
182.469	2347.88
182.546	2363.73
182.622	2366.06
182.698	2357.77
182.775	2367.1
182.851	2385.67
182.927	2376.19
183.003	2371.86
183.08	2367.63
183.156	2376.43
183.232	2374.96
183.308	2361.87
183.385	2372.2
183.461	2390.67
183.537	2394.05
183.613	2411.66
183.69	2400.43
183.766	2390.66
183.842	2401.9
183.918	2406.37
183.995	2423.32
184.071	2425.08
184.147	2415.09
184.223	2403.24
184.299	2420.76
184.375	2409.67
184.452	2416.72
184.528	2472.25
184.604	2486.14
184.68	2495.85
184.756	2503.09
184.832	2507.23
184.908	2515.13
184.985	2512.18
185.061	2495.38
185.137	2504.9
185.213	2488.91
185.289	2489.67
185.365	2480.81
185.441	2478.62
185.517	2495.96
185.593	2489.91
185.669	2489.34
185.745	2503.2
185.822	2523.04
185.898	2512.23
185.974	2524.94
186.05	2515.46
186.126	2478.17
186.202	2469.03
186.278	2466.65
186.354	2457.56
186.43	2463.94
186.506	2461.94
186.582	2464.8
186.658	2472.32
186.734	2447.95
186.81	2450.47
186.886	2455.8
186.962	2471.22
187.038	2464.8
187.114	2452.6
187.19	2459.98
187.266	2446.89
187.341	2449.65
187.417	2441.89
187.493	2439.8
187.569	2440.85
187.645	2437.28
187.721	2424.7
187.797	2433.27
187.873	2440.8
187.949	2433.18
188.025	2423.47
188.101	2423.8
188.176	2426.8
188.252	2423.66
188.328	2436.08
188.404	2437.74
188.48	2432.89
188.556	2425.31
188.632	2428.84
188.707	2431.08
188.783	2429.55
188.859	2423.27
188.935	2410.32
189.011	2418.32
189.086	2413.46
189.162	2403.8
189.238	2398.37
189.314	2394.8
189.39	2388.42
189.465	2378.52
189.541	2398.85
189.617	2385.05
189.693	2382.76
189.768	2385.57
189.844	2409.15
189.92	2397.3
189.996	2407.87
190.071	2416.34
190.147	2414.06
190.223	2419.58
190.298	2412.34
190.374	2394.21
190.45	2409.67
190.526	2419.05
190.601	2410.1
190.677	2412.25
190.753	2441.68
190.828	2445.44
190.904	2464.97
190.98	2481.49
191.055	2493.44
191.131	2478.68
191.207	2503.06
191.282	2512.48
191.358	2504.72
191.433	2490.48
191.509	2506.18
191.585	2501.23
191.66	2506.47
191.736	2513.42
191.811	2507.66
191.887	2520.76
191.963	2548.18
192.038	2555.56
192.114	2554.28
192.189	2563.75
192.265	2560.56
192.34	2537.36
192.416	2537.74
192.491	2532.6
192.567	2532.98
192.642	2537.31
192.718	2543.6
192.793	2527.6
192.869	2523.07
192.944	2525.12
193.02	2533.79
193.095	2538.12
193.171	2545.12
193.246	2543.03
193.322	2542.22
193.397	2542.31
193.473	2530.69
193.548	2511.74
193.624	2515.98
193.699	2515.88
193.775	2531.55
193.85	2531.65
193.925	2541.98
194.001	2538.08
194.076	2530.27
194.152	2521.36
194.227	2511.08
194.302	2499.03
194.378	2506.7
194.453	2504.84
194.529	2517.65
194.604	2502.41
194.679	2494.79
194.755	2473.04
194.83	2488.38
194.905	2485.67
194.981	2494.14
195.056	2485.77
195.131	2492.05
195.207	2491.72
195.282	2482.43
195.357	2460.81
195.433	2480.76
195.508	2469.85
195.583	2478.9
195.659	2494.24
195.734	2504.05
195.809	2504.05
195.884	2514.04
195.96	2511.62
196.035	2526.28
196.11	2522.42
196.185	2537.28
196.261	2544.23
196.336	2578.38
196.411	2560.27
196.486	2564.99
196.561	2556.84
196.637	2566.55
196.712	2585.18
196.787	2586.37
196.862	2603.04
196.937	2615.85
197.013	2617.95
197.088	2626.8
197.163	2651.87
197.238	2672.61
197.313	2669.7
197.388	2684.18
197.464	2717.16
197.539	2732.59
197.614	2725.69
197.689	2740.55
197.764	2758.81
197.839	2779.78
197.914	2772.34
197.989	2796.12
198.065	2810.6
198.14	2870.5
198.215	2899.95
198.29	2914.83
198.365	2931.47
198.44	2943.33
198.515	2973.61
198.59	2992.87
198.665	3024.86
198.74	3035.54
198.815	3034.06
198.89	3062.24
198.965	3095.05
199.04	3092.28
199.115	3106.39
199.19	3155.55
199.265	3160.18
199.34	3167.48
199.415	3204.65
199.49	3230.02
199.565	3243.99
199.64	3271.32
199.715	3264.16
199.79	3272.37
199.865	3276.33
199.94	3276.42
200.015	3313.64
200.09	3320.75
200.165	3331.25
200.24	3337.26
200.315	3384.17
200.39	3401.82
200.464	3409.55
200.539	3415.86
200.614	3435.42
200.689	3463.39
200.764	3471.22
200.839	3490.58
200.914	3498.27
200.989	3487.71
201.063	3506.81
201.138	3487.44
201.213	3489.97
201.288	3472.6
201.363	3476.9
201.438	3481.48
201.512	3498.7
201.587	3477.93
201.662	3482.9
201.737	3494.4
201.812	3504.19
201.886	3466.64
201.961	3475.19
202.036	3459.4
202.111	3456.67
202.186	3424.71
202.26	3406.81
202.335	3382.23
202.41	3375.41
202.485	3356.57
202.559	3335.86
202.634	3306.79
202.709	3316.9
202.784	3297.91
202.858	3300.68
202.933	3285.79
203.008	3278.64
203.082	3260.94
203.157	3266.19
203.232	3225.31
203.306	3207.89
203.381	3179.02
203.456	3161.32
203.53	3147.19
203.605	3135.46
203.68	3115.66
203.754	3117.9
203.829	3114.42
203.904	3104.21
203.978	3103.97
204.053	3121
204.127	3121.33
204.202	3136.07
204.277	3138.22
204.351	3151.77
204.426	3163.41
204.5	3177.15
204.575	3166.09
204.65	3201.6
204.724	3221.51
204.799	3261.33
204.873	3289.12
204.948	3324.48
205.022	3348.92
205.097	3377.38
205.171	3430.93
205.246	3485.71
205.32	3530.57
205.395	3579.1
205.469	3621.62
205.544	3683.41
205.618	3725.78
205.693	3801.03
205.767	3848.38
205.842	3931.74
205.916	3991.48
205.991	4048.51
206.065	4127.97
206.14	4216.47
206.214	4291.74
206.289	4363.13
206.363	4461.55
206.438	4546.89
206.512	4635.39
206.586	4745.38
206.661	4846.69
206.735	4921.6
206.81	5021.65
206.884	5141.35
206.958	5231.08
207.033	5354.91
207.107	5465.19
207.181	5604.67
207.256	5702.4
207.33	5836.91
207.405	5967.45
207.479	6105.43
207.553	6227.42
207.628	6329.14
207.702	6466.98
207.776	6583.46
207.851	6710.95
207.925	6850.42
207.999	6974.6
208.073	7105.03
208.148	7240.22
208.222	7358.46
208.296	7525.35
208.371	7673.42
208.445	7816.15
208.519	7980.22
208.593	8127.53
208.668	8270.62
208.742	8416.87
208.816	8557.53
208.89	8713.76
208.965	8855.97
209.039	8998.94
209.113	9167.17
209.187	9331.59
209.261	9467.74
209.336	9635.03
209.41	9806.04
209.484	9945.82
209.558	10120.14
209.632	10278.32
209.707	10426.45
209.781	10594.97
209.855	10754.69
209.929	10918.39
210.003	11065.21
210.077	11207.27
210.151	11408.62
210.226	11586.99
210.3	11757.03
210.374	11930.77
210.448	12073.1
210.522	12216.2
210.596	12376.04
210.67	12523.1
210.744	12714.7
210.818	12887.31
210.892	13035.58
210.966	13161.3
211.041	13321.43
211.115	13451.64
211.189	13611.39
211.263	13765.55
211.337	13907.03
211.411	14054.63
211.485	14176.4
211.559	14326.17
211.633	14456.71
211.707	14545.7
211.781	14676.76
211.855	14767.38
211.929	14878.11
212.003	14984.84
212.077	15123.75
212.151	15258.38
212.225	15394.26
212.299	15506.62
212.373	15612.56
212.447	15738.99
212.52	15881.9
212.594	15993.82
212.668	16113.6
212.742	16218.77
212.816	16332.27
212.89	16432.81
212.964	16546.46
213.038	16656.44
213.112	16777.17
213.186	16902.91
213.26	16981.43
213.333	17034.01
213.407	17137.82
213.481	17249.97
213.555	17365.4
213.629	17455.61
213.703	17538.55
213.777	17629.06
213.85	17704.77
213.924	17846.93
213.998	17939.99
214.072	18032.85
214.146	18111.31
214.219	18210.05
214.293	18289.52
214.367	18374.72
214.441	18483.49
214.515	18557.31
214.588	18618.95
214.662	18669.5
214.736	18730.17
214.81	18827.13
214.883	18925.34
214.957	18986.55
215.031	19052.57
215.105	19103.98
215.178	19168.85
215.252	19239.06
215.326	19284.5
215.4	19334.19
215.473	19344.69
215.547	19390.57
215.621	19440.4
215.694	19519.09
215.768	19550.03
215.842	19602.42
215.915	19651.43
215.989	19687.52
216.063	19741.16
216.136	19807.71
216.21	19865.92
216.284	19940.57
216.357	20003.37
216.431	20058.21
216.504	20131.31
216.578	20212.18
216.652	20283.07
216.725	20331.31
216.799	20401.38
216.873	20465.67
216.946	20526.64
217.02	20580.56
217.093	20626.93
217.167	20662.83
217.24	20695.51
217.314	20749.87
217.387	20797.34
217.461	20841.05
217.535	20901.73
217.608	20935.85
217.682	20990.51
217.755	21062.18
217.829	21098.32
217.902	21148.3
217.976	21188.79
218.049	21227.73
218.123	21251.16
218.196	21302.58
218.27	21347.46
218.343	21367.17
218.417	21414.69
218.49	21460.97
218.563	21524.64
218.637	21574.24
218.71	21649.62
218.784	21693.54
218.857	21747.38
218.931	21795.77
219.004	21835.63
219.077	21879.64
219.151	21932.66
219.224	21968.77
219.298	21998.9
219.371	22057.81
219.444	22079.55
219.518	22122.93
219.591	22167.66
219.665	22250.15
219.738	22290.93
219.811	22317.93
219.885	22370.62
219.958	22416.08
220.031	22447.99
220.105	22487.19
220.178	22531.11
220.251	22548.9
220.325	22598.08
220.398	22630.71
220.471	22665.95
220.544	22714.36
220.618	22735.62
220.691	22762.09
220.764	22791.02
220.838	22823.03
220.911	22849.79
220.984	22911.79
221.057	22956.44
221.131	22993.81
221.204	22981.32
221.277	23028.19
221.35	23100.76
221.424	23117.25
221.497	23139.91
221.57	23166.62
221.643	23204.47
221.716	23236.4
221.79	23253.03
221.863	23281.53
221.936	23307.71
222.009	23340.69
222.082	23355.88
222.155	23372.47
222.229	23408.78
222.302	23432.55
222.375	23450.78
222.448	23467.61
222.521	23480.97
222.594	23486.9
222.667	23492.21
222.74	23517.33
222.814	23523.12
222.887	23521.86
222.96	23547.66
223.033	23576.7
223.106	23599.31
223.179	23618.12
223.252	23634.23
223.325	23652.94
223.398	23652.41
223.471	23663.89
223.544	23678.55
223.617	23692.68
223.69	23708.59
223.763	23709.8
223.837	23721.76
223.91	23736.51
223.983	23729.47
224.056	23720.55
224.129	23732.22
224.202	23755.32
224.275	23752.33
224.348	23745.87
224.42	23733.48
224.493	23730.97
224.566	23723.97
224.639	23726.82
224.712	23712.64
224.785	23702.46
224.858	23705.84
224.931	23702.7
225.004	23702.9
225.077	23694.46
225.15	23675.26
225.223	23673.29
225.296	23690.46
225.369	23671.26
225.442	23664.46
225.514	23665.38
225.587	23673.05
225.66	23673.43
225.733	23662.68
225.806	23664.85
225.879	23666.01
225.952	23652.31
226.025	23644.59
226.097	23652.46
226.17	23643.73
226.243	23616.58
226.316	23610.55
226.389	23607.8
226.461	23616.96
226.534	23606.69
226.607	23600.52
226.68	23625.26
226.753	23626.8
226.825	23605.24
226.898	23613.1
226.971	23591.45
227.044	23587.59
227.117	23578.96
227.189	23583.25
227.262	23589.76
227.335	23589.04
227.407	23570.42
227.48	23567.29
227.553	23564.88
227.626	23537.44
227.698	23527.89
227.771	23512.41
227.844	23493.12
227.916	23475.81
227.989	23430.87
228.062	23420.26
228.134	23426.72
228.207	23406.71
228.28	23388.19
228.352	23367.07
228.425	23358.44
228.498	23364.08
228.57	23350.29
228.643	23345.27
228.716	23314.26
228.788	23287.65
228.861	23277.23
228.934	23281.33
229.006	23270.29
229.079	23252.97
229.151	23239.04
229.224	23214.88
229.296	23218.5
229.369	23229.78
229.442	23237.93
229.514	23227.66
229.587	23224.96
229.659	23187.98
229.732	23176.26
229.804	23168.93
229.877	23176.16
229.949	23179.59
230.022	23182.24
230.094	23158.85
230.167	23145.74
230.239	23119.7
230.312	23097.96
230.384	23099.55
230.457	23086
230.529	23071.63
230.602	23053.12
230.674	23047.62
230.747	23047.72
230.819	23047.14
230.892	22999.16
230.964	22971.92
231.037	22964.88
231.109	22941.35
231.181	22943.28
231.254	22917.87
231.326	22895.74
231.399	22880.07
231.471	22835.85
231.544	22791.25
231.616	22789.61
231.688	22757.5
231.761	22735.71
231.833	22718.98
231.905	22668.55
231.978	22640.01
232.05	22626.37
232.122	22610.46
232.195	22576.95
232.267	22555.3
232.339	22527.44
232.412	22535.58
232.484	22520.54
232.556	22491.13
232.629	22500.87
232.701	22481.73
232.773	22450.5
232.846	22415.02
232.918	22373.51
232.99	22362.95
233.062	22352.44
233.135	22325.3
233.207	22294.59
233.279	22283.74
233.351	22262.39
233.424	22245.61
233.496	22208.74
233.568	22203.82
233.64	22162.6
233.713	22143.32
233.785	22121.29
233.857	22099.98
233.929	22047.15
234.001	22030.66
234.074	22026.37
234.146	21960.81
234.218	21928.66
234.29	21907.26
234.362	21883.21
234.434	21850.48
234.507	21805.12
234.579	21753.59
234.651	21718.16
234.723	21700.33
234.795	21671.26
234.867	21636.32
234.939	21607.54
235.012	21584.41
235.084	21554.13
235.156	21535.05
235.228	21495.67
235.3	21457.54
235.372	21413.97
235.444	21394.06
235.516	21333.47
235.588	21294.53
235.66	21265.61
235.732	21220.98
235.804	21245.71
235.876	21226.28
235.948	21211.73
236.02	21183.1
236.092	21152.74
236.164	21116.25
236.236	21084.63
236.308	21048.34
236.38	21028.39
236.452	20988.39
236.524	20959.66
236.596	20935.71
236.668	20912.67
236.74	20878.02
236.812	20846.31
236.884	20825.87
236.956	20791.17
237.028	20754.4
237.1	20710.93
237.172	20701.24
237.244	20691.41
237.316	20618.44
237.388	20570.78
237.46	20530.97
237.532	20524.13
237.604	20482.83
237.675	20469.62
237.747	20446.73
237.819	20406.15
237.891	20370.92
237.963	20328.32
238.035	20284.42
238.107	20209.38
238.178	20185.67
238.25	20154.06
238.322	20148.47
238.394	20095.31
238.466	20066.73
238.538	20032.86
238.609	20005.68
238.681	19947.94
238.753	19892.86
238.825	19858.79
238.897	19828.04
238.968	19816.38
239.04	19748.96
239.112	19758.46
239.184	19703.81
239.255	19652.44
239.327	19622.75
239.399	19579.91
239.471	19556.39
239.542	19528.54
239.614	19504.2
239.686	19435.44
239.758	19408.45
239.829	19356.11
239.901	19333.32
239.973	19290.62
240.044	19261.52
240.116	19233.13
240.188	19193.43
240.259	19163.26
240.331	19120.13
240.403	19096.28
240.474	19028.95
240.546	19000.67
240.618	18933.3
240.689	18897.64
240.761	18869.83
240.833	18849.88
240.904	18818.41
240.976	18781.07
241.048	18746.9
241.119	18725.65
241.191	18706.8
241.262	18694.23
241.334	18656.54
241.405	18615.82
241.477	18568.45
241.549	18528.41
241.62	18486.67
241.692	18460.36
241.763	18433.71
241.835	18391.55
241.906	18350.49
241.978	18297.67
242.049	18268.27
242.121	18241.34
242.192	18227.17
242.264	18169.63
242.335	18110.11
242.407	18082.35
242.478	18041.58
242.55	18005.3
242.621	17956.09
242.693	17908.87
242.764	17856.82
242.836	17813.98
242.907	17781.5
242.979	17755.14
243.05	17728.15
243.122	17709.98
243.193	17674.56
243.264	17619.72
243.336	17593.84
243.407	17571.14
243.479	17564.3
243.55	17537.6
243.622	17511.29
243.693	17461.26
243.764	17453.5
243.836	17415.09
243.907	17375.67
243.978	17342.32
244.05	17324.1
244.121	17274.66
244.192	17255.43
244.264	17206.27
244.335	17171.47
244.407	17120.92
244.478	17091.57
244.549	17052.58
244.62	16993.78
244.692	16955.08
244.763	16923.95
244.834	16876.86
244.906	16831.8
244.977	16797.24
245.048	16772.33
245.119	16720.61
245.191	16678.73
245.262	16623.07
245.333	16608.7
245.405	16568.75
245.476	16542
245.547	16501.85
245.618	16477.95
245.689	16445.37
245.761	16422.18
245.832	16382.37
245.903	16363.86
245.974	16334.32
246.045	16295.38
246.117	16277.88
246.188	16231.46
246.259	16186.45
246.33	16154.73
246.401	16112.8
246.473	16065.66
246.544	16027.59
246.615	16007.15
246.686	15980.59
246.757	15962.95
246.828	15921.16
246.899	15907.76
246.97	15852
247.042	15805.77
247.113	15781.67
247.184	15765.33
247.255	15719.3
247.326	15702.63
247.397	15668.93
247.468	15642.18
247.539	15614.27
247.61	15571.18
247.681	15556.38
247.752	15546.84
247.823	15501.48
247.894	15479.94
247.965	15442.68
248.037	15403.25
248.108	15358.61
248.179	15324.63
248.25	15283.03
248.321	15256.67
248.392	15212.03
248.463	15213.43
248.534	15190.24
248.605	15172.75
248.675	15138.19
248.746	15121.65
248.817	15103
248.888	15080.44
248.959	15033.3
249.03	15012.96
249.101	14986.59
249.172	14950.53
249.243	14896.01
249.314	14887.87
249.385	14859.57
249.456	14837.4
249.527	14805.44
249.598	14782.25
249.669	14748.89
249.739	14732.99
249.81	14705.56
249.881	14665.07
249.952	14633.11
250.023	14607.08
250.094	14555.93
250.165	14517.99
250.235	14479
250.306	14443.86
250.377	14397
250.448	14372.46
250.519	14320.31
250.59	14316.11
250.66	14282.75
250.731	14277.31
250.802	14252.91
250.873	14233.92
250.944	14209.29
251.014	14179.93
251.085	14179.01
251.156	14158.86
251.227	14147.63
251.297	14140.64
251.368	14130.18
251.439	14114.61
251.51	14103.57
251.58	14070.07
251.651	14036.61
251.722	14024.71
251.792	13972.98
251.863	13951.63
251.934	13936.35
252.005	13950.9
252.075	13913.83
252.146	13906.65
252.217	13899.66
252.287	13887.27
252.358	13854.78
252.429	13854.39
252.499	13821.32
252.57	13801.85
252.641	13789.56
252.711	13759.62
252.782	13713.92
252.852	13705.2
252.923	13675.6
252.994	13647.44
253.064	13643.4
253.135	13609.94
253.205	13583.04
253.276	13581.84
253.347	13572.05
253.417	13546.36
253.488	13508.03
253.558	13475.97
253.629	13448.93
253.699	13428.78
253.77	13417.45
253.841	13390.99
253.911	13369.44
253.982	13351.17
254.052	13336.61
254.123	13317.66
254.193	13294.43
254.264	13313.04
254.334	13279.63
254.405	13250.46
254.475	13219.71
254.546	13193.15
254.616	13190.4
254.687	13176.9
254.757	13165.38
254.827	13143.01
254.898	13134.05
254.968	13115.53
255.039	13095.67
255.109	13082.56
255.18	13043.47
255.25	12990.1
255.321	12981.28
255.391	12942.91
255.461	12947.34
255.532	12888.68
255.602	12861.2
255.673	12817.48
255.743	12786.29
255.813	12739.34
255.884	12736.39
255.954	12723.91
256.024	12721.93
256.095	12706.94
256.165	12669.82
256.235	12651.65
256.306	12625.09
256.376	12611.74
256.446	12598.53
256.517	12583.25
256.587	12581.61
256.657	12562.13
256.728	12548.59
256.798	12524.2
256.868	12506.8
256.938	12474.06
257.009	12470.93
257.079	12460.81
257.149	12472.71
257.219	12432.7
257.29	12421.76
257.36	12376.64
257.43	12366.81
257.5	12322.08
257.571	12289.01
257.641	12287.23
257.711	12257.39
257.781	12245.48
257.852	12233
257.922	12192.51
257.992	12177.42
258.062	12144.02
258.132	12139.05
258.202	12113.75
258.273	12101.5
258.343	12098.22
258.413	12066.17
258.483	12043.52
258.553	12009.34
258.623	11975.26
258.693	11960.03
258.764	11960.99
258.834	11960.13
258.904	11939.16
258.974	11915.01
259.044	11898.67
259.114	11879.01
259.184	11855.97
259.254	11835.77
259.324	11788.29
259.394	11776.97
259.464	11768
259.535	11751.28
259.605	11721.01
259.675	11698.11
259.745	11684.66
259.815	11659.5
259.885	11641.57
259.955	11655.89
260.025	11631.12
260.095	11618.44
260.165	11603.98
260.235	11597.96
260.305	11564.8
260.375	11534.14
260.445	11546
260.515	11546.29
260.585	11538.48
260.655	11530
260.725	11520.65
260.795	11520.26
260.865	11527.2
260.934	11500.45
261.004	11490.67
261.074	11481.71
261.144	11488.69
261.214	11480.84
261.284	11453.85
261.354	11453.9
261.424	11421.55
261.494	11425.99
261.564	11401.36
261.634	11394.03
261.703	11358.37
261.773	11353.7
261.843	11340.3
261.913	11318.9
