Data from 20250703_urea_0.1M_MAYP1162681_21-01-04-876.txt Node
Date: Thu Jul 03 21:01:04 BST 2025
User: adleo
Spectrometer: MAYP116268
Trigger mode: 0
Integration Time (sec): 1.000000E0
Scans to average: 1
Electric dark correction enabled: true
Nonlinearity correction enabled: true
Boxcar width: 10
XAxis mode: Wavelengths
Number of Pixels in Spectrum: 2068
>>>>>Begin Spectral Data<<<<<
179.565	1397.61
179.642	1459.24
179.718	1508.77
179.795	1553.23
179.871	1590.23
179.948	1611.37
180.024	1639.65
180.101	1664.13
180.177	1681.61
180.254	1711.09
180.33	1734.61
180.407	1802.53
180.483	1911.62
180.56	2018.54
180.636	2116.07
180.712	2099.75
180.789	2111.5
180.865	2122.68
180.942	2131.43
181.018	2140.75
181.095	2153.79
181.171	2158.64
181.248	2162.93
181.324	2182.44
181.4	2192.43
181.477	2204.28
181.553	2217.98
181.63	2237.39
181.706	2254.72
181.782	2261.61
181.859	2258.71
181.935	2268.18
182.011	2265.33
182.088	2283.36
182.164	2305.41
182.24	2321.49
182.317	2334.39
182.393	2332.39
182.469	2351.24
182.546	2367.61
182.622	2374.84
182.698	2371.89
182.775	2386.65
182.851	2399.02
182.927	2389.31
183.003	2383.12
183.08	2379.13
183.156	2388.22
183.232	2382.65
183.308	2370.89
183.385	2381.74
183.461	2401.26
183.537	2401.54
183.613	2415.49
183.69	2407.4
183.766	2393.11
183.842	2398.54
183.918	2403.11
183.995	2417.72
184.071	2421.29
184.147	2413.72
184.223	2402.4
184.299	2415.21
184.375	2400.5
184.452	2409.17
184.528	2460.35
184.604	2472.11
184.68	2484.01
184.756	2495.68
184.832	2501.54
184.908	2507.72
184.985	2507.67
185.061	2489.06
185.137	2502.39
185.213	2489.64
185.289	2489.44
185.365	2482.07
185.441	2483.69
185.517	2499.69
185.593	2496.26
185.669	2493.02
185.745	2504.02
185.822	2522.49
185.898	2510.96
185.974	2520.77
186.05	2512.63
186.126	2476.87
186.202	2466.92
186.278	2462.87
186.354	2450.3
186.43	2458.2
186.506	2457.73
186.582	2456.78
186.658	2465.25
186.734	2439.11
186.81	2442.4
186.886	2445.4
186.962	2458.34
187.038	2453.92
187.114	2445.91
187.19	2455.06
187.266	2443.01
187.341	2441.77
187.417	2433.78
187.493	2434.92
187.569	2439.35
187.645	2431.63
187.721	2418.54
187.797	2430.3
187.873	2435.96
187.949	2428.16
188.025	2420.3
188.101	2423.11
188.176	2429.15
188.252	2423.87
188.328	2432.15
188.404	2434.91
188.48	2431.58
188.556	2423.82
188.632	2422.63
188.707	2422.01
188.783	2416.91
188.859	2411.49
188.935	2402.06
189.011	2407.44
189.086	2399.63
189.162	2392.97
189.238	2392.02
189.314	2390.49
189.39	2385.54
189.465	2378.83
189.541	2400.16
189.617	2385.97
189.693	2380.69
189.768	2383.69
189.844	2411.7
189.92	2405.27
189.996	2412.03
190.071	2423.17
190.147	2422.03
190.223	2433.17
190.298	2423.94
190.374	2409.94
190.45	2424.36
190.526	2434.31
190.601	2429.36
190.677	2430.6
190.753	2456.51
190.828	2458.08
190.904	2477.66
190.98	2491.04
191.055	2498.37
191.131	2487.56
191.207	2508.89
191.282	2519.98
191.358	2509.22
191.433	2488.83
191.509	2501.92
191.585	2499.54
191.66	2499.73
191.736	2509.16
191.811	2499.11
191.887	2518.68
191.963	2544.21
192.038	2548.87
192.114	2548.64
192.189	2551.59
192.265	2548.54
192.34	2526.48
192.416	2529.05
192.491	2523.19
192.567	2524.77
192.642	2531.15
192.718	2532.24
192.793	2518.72
192.869	2514.25
192.944	2519.77
193.02	2528.2
193.095	2533.67
193.171	2539.2
193.246	2540.58
193.322	2537.34
193.397	2536.34
193.473	2518.1
193.548	2499.66
193.624	2504.24
193.699	2503.24
193.775	2521.34
193.85	2521.81
193.925	2532.2
194.001	2528.82
194.076	2520.1
194.152	2511.24
194.227	2500.1
194.302	2489.29
194.378	2496.15
194.453	2493.62
194.529	2505.86
194.604	2494.25
194.679	2484.68
194.755	2463.63
194.83	2478.02
194.905	2476.4
194.981	2487.88
195.056	2481.65
195.131	2488.17
195.207	2487.98
195.282	2477.41
195.357	2455.36
195.433	2472.93
195.508	2457.83
195.583	2466.73
195.659	2479.73
195.734	2490.21
195.809	2492.12
195.884	2502.3
195.96	2502.4
196.035	2517.73
196.11	2510.68
196.185	2523.73
196.261	2528.97
196.336	2561.25
196.411	2544.67
196.486	2550.96
196.561	2545.1
196.637	2556.77
196.712	2576.11
196.787	2577.16
196.862	2595.01
196.937	2610.39
197.013	2618.45
197.088	2631.4
197.163	2656.51
197.238	2676.58
197.313	2674.67
197.388	2687.87
197.464	2721.42
197.539	2732.18
197.614	2725.94
197.689	2744.38
197.764	2763.31
197.839	2787.61
197.914	2781.36
197.989	2806.67
198.065	2822.01
198.14	2872.32
198.215	2900.87
198.29	2913.93
198.365	2932.86
198.44	2945.68
198.515	2976.05
198.59	2991.06
198.665	3021.48
198.74	3030.11
198.815	3032.45
198.89	3056.43
198.965	3092.78
199.04	3087.01
199.115	3107.7
199.19	3157
199.265	3156.1
199.34	3163.44
199.415	3200.62
199.49	3228.99
199.565	3238.39
199.64	3264.86
199.715	3259.75
199.79	3268.72
199.865	3273.3
199.94	3272.21
200.015	3304.13
200.09	3306.46
200.165	3316.01
200.24	3321.35
200.315	3364.62
200.39	3382.28
200.464	3390.91
200.539	3388.95
200.614	3410.57
200.689	3432.67
200.764	3438.44
200.839	3462.24
200.914	3475.42
200.989	3461.66
201.063	3476.32
201.138	3460.06
201.213	3458.29
201.288	3443.64
201.363	3449.08
201.438	3450.66
201.512	3466.02
201.587	3450.5
201.662	3458.19
201.737	3471.79
201.812	3480.77
201.886	3443.84
201.961	3455.02
202.036	3442.14
202.111	3439.08
202.186	3406.89
202.26	3391.99
202.335	3367.89
202.41	3358.92
202.485	3335.44
202.559	3317.03
202.634	3286.97
202.709	3296.65
202.784	3278.75
202.858	3278.04
202.933	3259.29
203.008	3257.05
203.082	3241.92
203.157	3244.36
203.232	3202.01
203.306	3184.64
203.381	3157.2
203.456	3142.65
203.53	3124.75
203.605	3113.5
203.68	3102.14
203.754	3106.76
203.829	3101.37
203.904	3094.6
203.978	3099.99
204.053	3121.5
204.127	3122.08
204.202	3140.35
204.277	3142.49
204.351	3159.52
204.426	3178.56
204.5	3191.97
204.575	3178.57
204.65	3216.94
204.724	3240.34
204.799	3279.11
204.873	3307.23
204.948	3345.12
205.022	3367.07
205.097	3397.45
205.171	3452.19
205.246	3503.44
205.32	3548.97
205.395	3597.64
205.469	3638.12
205.544	3695.18
205.618	3728.95
205.693	3805.5
205.767	3855
205.842	3945.59
205.916	4000.65
205.991	4057.39
206.065	4134.75
206.14	4226.21
206.214	4303.26
206.289	4374.32
206.363	4476.76
206.438	4566.7
206.512	4657.55
206.586	4766.76
206.661	4865.91
206.735	4934.02
206.81	5031.73
206.884	5148.12
206.958	5238.37
207.033	5361.87
207.107	5477.87
207.181	5623
207.256	5722.94
207.33	5851.65
207.405	5974.19
207.479	6116.63
207.553	6250.26
207.628	6350.19
207.702	6482.99
207.776	6589.88
207.851	6719.24
207.925	6857.27
207.999	6984.97
208.073	7117.63
208.148	7255.74
208.222	7377.92
208.296	7554.82
208.371	7712.42
208.445	7861.16
208.519	8028.21
208.593	8180.54
208.668	8312.85
208.742	8455.49
208.816	8595.29
208.89	8754.31
208.965	8905.29
209.039	9052.79
209.113	9208.34
209.187	9377.66
209.261	9522.96
209.336	9693.94
209.41	9856.1
209.484	10004.79
209.558	10171.7
209.632	10327.23
209.707	10489.06
209.781	10662.49
209.855	10829.31
209.929	10988.29
210.003	11135.69
210.077	11280.21
210.151	11474.48
210.226	11659.36
210.3	11835.28
210.374	12011.57
210.448	12157.52
210.522	12303.33
210.596	12452.6
210.67	12605.12
210.744	12795.99
210.818	12968.36
210.892	13131.82
210.966	13273.74
211.041	13428.52
211.115	13556.22
211.189	13712.16
211.263	13860.1
211.337	14000.33
211.411	14132.99
211.485	14259.43
211.559	14413.06
211.633	14539.89
211.707	14631.77
211.781	14765.24
211.855	14848.54
211.929	14966.11
212.003	15073.7
212.077	15206.69
212.151	15343.82
212.225	15475.31
212.299	15590.99
212.373	15702.92
212.447	15808.91
212.52	15948.97
212.594	16066
212.668	16195.32
212.742	16302.27
212.816	16409.46
212.89	16505.81
212.964	16622.39
213.038	16733.34
213.112	16847.46
213.186	16975.62
213.26	17060.78
213.333	17119.53
213.407	17236.55
213.481	17342.19
213.555	17459.11
213.629	17544.46
213.703	17631.78
213.777	17728.55
213.85	17812.98
213.924	17944.93
213.998	18053.84
214.072	18146.61
214.146	18218.03
214.219	18308.48
214.293	18400.05
214.367	18501.87
214.441	18606.98
214.515	18688.13
214.588	18749.52
214.662	18805.86
214.736	18866.09
214.81	18957.46
214.883	19034.09
214.957	19105.65
215.031	19170.61
215.105	19225.88
215.178	19296.38
215.252	19367.27
215.326	19418.01
215.4	19460.52
215.473	19476.04
215.547	19517.77
215.621	19573.86
215.694	19661.09
215.768	19702
215.842	19742.39
215.915	19783.88
215.989	19827.49
216.063	19867.1
216.136	19935.68
216.21	19981.17
216.284	20061.17
216.357	20122.33
216.431	20191.58
216.504	20256.83
216.578	20336.11
216.652	20404.64
216.725	20457.55
216.799	20518.04
216.873	20568.11
216.946	20633.02
217.02	20687.77
217.093	20743.92
217.167	20770.67
217.24	20804.98
217.314	20861.9
217.387	20910.77
217.461	20948.02
217.535	21014.92
217.608	21053.62
217.682	21100.66
217.755	21175.32
217.829	21216.82
217.902	21278.56
217.976	21326.85
218.049	21361.65
218.123	21391.29
218.196	21438.05
218.27	21479.21
218.343	21512.13
218.417	21562.64
218.49	21609.45
218.563	21672.2
218.637	21718.96
218.71	21786.2
218.784	21842.41
218.857	21888.15
218.931	21943.54
219.004	21998.92
219.077	22028.91
219.151	22082.27
219.224	22125.36
219.298	22157.76
219.371	22200.61
219.444	22218.16
219.518	22254.6
219.591	22297.46
219.665	22364.9
219.738	22403.86
219.811	22430.85
219.885	22477.9
219.958	22521.39
220.031	22552.1
220.105	22589.7
220.178	22629.09
220.251	22663.95
220.325	22700.89
220.398	22738.73
220.471	22775.9
220.544	22815.29
220.618	22845.28
220.691	22887.23
220.764	22910.9
220.838	22946.39
220.911	22977.83
220.984	23028.93
221.057	23069.24
221.131	23100.44
221.204	23097.5
221.277	23149.33
221.35	23207.82
221.424	23222.29
221.497	23257.78
221.57	23285.65
221.643	23308.6
221.716	23331.79
221.79	23343.99
221.863	23360
221.936	23394.19
222.009	23416.76
222.082	23436.53
222.155	23463.15
222.229	23498.31
222.302	23529.51
222.375	23541.03
222.448	23564.42
222.521	23588.05
222.594	23599.58
222.667	23606.38
222.74	23637.92
222.814	23646.07
222.887	23655.66
222.96	23689.18
223.033	23706.5
223.106	23734.9
223.179	23772.91
223.252	23797.26
223.325	23807.78
223.398	23819.45
223.471	23827.55
223.544	23832.13
223.617	23839.85
223.69	23843.08
223.763	23843.51
223.837	23852.58
223.91	23874.14
223.983	23862.71
224.056	23850.36
224.129	23866.28
224.202	23883.44
224.275	23880.74
224.348	23875.49
224.42	23870.62
224.493	23853.45
224.566	23845.25
224.639	23842.26
224.712	23817.08
224.785	23800
224.858	23807.87
224.931	23796.05
225.004	23785.49
225.077	23780.47
225.15	23754.19
225.223	23749.99
225.296	23767.79
225.369	23740.11
225.442	23724.92
225.514	23719.23
225.587	23725.35
225.66	23717.25
225.733	23714.26
225.806	23714.12
225.879	23699.41
225.952	23684.02
226.025	23692.85
226.097	23707.08
226.17	23697.91
226.243	23671.78
226.316	23667.77
226.389	23659.67
226.461	23661.5
226.534	23663.82
226.607	23664.35
226.68	23686.63
226.753	23693.09
226.825	23657.54
226.898	23673.26
226.971	23665.98
227.044	23666.46
227.117	23649.63
227.189	23648.38
227.262	23648.67
227.335	23645.68
227.407	23645.82
227.48	23632.8
227.553	23633.43
227.626	23620.75
227.698	23615.2
227.771	23617.18
227.844	23594.46
227.916	23580.09
227.989	23550.53
228.062	23522.23
228.134	23531.24
228.207	23512.29
228.28	23487.75
228.352	23474.1
228.425	23460.84
228.498	23459.54
228.57	23427.57
228.643	23429.78
228.716	23400.95
228.788	23374.91
228.861	23353.35
228.934	23337.63
229.006	23325.91
229.079	23300.55
229.151	23270.84
229.224	23231.98
229.296	23223.2
229.369	23247.89
229.442	23250.11
229.514	23240.37
229.587	23242.64
229.659	23202.18
229.732	23191.67
229.804	23184.34
229.877	23186.17
229.949	23183.37
230.022	23189.88
230.094	23188.1
230.167	23172.81
230.239	23158.25
230.312	23146.29
230.384	23158.49
230.457	23158.98
230.529	23147.65
230.602	23130.53
230.674	23117.17
230.747	23120.07
230.819	23121.17
230.892	23053.77
230.964	23035.73
231.037	23023.15
231.109	22997.4
231.181	22992.24
231.254	22965.1
231.326	22943.35
231.399	22918.18
231.471	22885.45
231.544	22835.49
231.616	22829.32
231.688	22812.93
231.761	22782.7
231.833	22755.12
231.905	22688.88
231.978	22655.75
232.05	22636.61
232.122	22611.35
232.195	22578.62
232.267	22578.95
232.339	22538.45
232.412	22546.22
232.484	22508.18
232.556	22476.99
232.629	22480.07
232.701	22464.02
232.773	22439.87
232.846	22406.55
232.918	22379.36
232.99	22356.99
233.062	22342.44
233.135	22313.75
233.207	22276
233.279	22262.55
233.351	22247.71
233.424	22239.03
233.496	22210.15
233.568	22206.3
233.64	22171.2
233.713	22160.07
233.785	22118.85
233.857	22099.47
233.929	22057.29
234.001	22058.31
234.074	22045.05
234.146	21990.14
234.218	21960.16
234.29	21938.81
234.362	21908.2
234.434	21875.61
234.507	21834.21
234.579	21791.79
234.651	21759.93
234.723	21734.67
234.795	21707.05
234.867	21673.79
234.939	21659.72
235.012	21628.1
235.084	21600.38
235.156	21584.52
235.228	21541.72
235.3	21507.64
235.372	21481.18
235.444	21470.14
235.516	21406.13
235.588	21379
235.66	21355.24
235.732	21310.89
235.804	21325.59
235.876	21303.52
235.948	21279.71
236.02	21251.95
236.092	21209.87
236.164	21172.19
236.236	21132.09
236.308	21096.9
236.38	21070.88
236.452	21029.14
236.524	21004.08
236.596	20979.69
236.668	20955.59
236.74	20924.02
236.812	20900.26
236.884	20868.89
236.956	20835.15
237.028	20802.67
237.1	20761.32
237.172	20746.71
237.244	20738.37
237.316	20669.4
237.388	20631.77
237.46	20595.48
237.532	20571.91
237.604	20536.05
237.675	20534.22
237.747	20502.27
237.819	20468.54
237.891	20426.66
237.963	20379.53
238.035	20339.86
238.107	20266.66
238.178	20242.8
238.25	20197.07
238.322	20178.32
238.394	20126.52
238.466	20079.19
238.538	20053.89
238.609	20023.15
238.681	19963.92
238.753	19913.03
238.825	19880.64
238.897	19845.7
238.968	19826.91
239.04	19783.3
239.112	19787.63
239.184	19726.29
239.255	19693.71
239.327	19652.85
239.399	19628.22
239.471	19608.75
239.542	19579.98
239.614	19568.71
239.686	19507.94
239.758	19483.75
239.829	19432.47
239.901	19410.3
239.973	19373.97
240.044	19341.3
240.116	19309.54
240.188	19270.55
240.259	19233.54
240.331	19188.29
240.403	19158.66
240.474	19100.93
240.546	19052.83
240.618	18985.61
240.689	18946.09
240.761	18912.12
240.833	18895.4
240.904	18847.59
240.976	18806.34
241.048	18768.9
241.119	18732.47
241.191	18703.99
241.262	18687.55
241.334	18643.8
241.405	18599.27
241.477	18560.86
241.549	18524.19
241.62	18482.41
241.692	18465.73
241.763	18440.48
241.835	18404.44
241.906	18373.74
241.978	18320.54
242.049	18310.56
242.121	18290.32
242.192	18274.66
242.264	18223.29
242.335	18165.65
242.407	18132.11
242.478	18080.4
242.55	18046.38
242.621	18006.04
242.693	17961.9
242.764	17918.72
242.836	17891.98
242.907	17871.11
242.979	17840.7
243.05	17804.6
243.122	17782.29
243.193	17733.62
243.264	17674.1
243.336	17638.82
243.407	17610.15
243.479	17602.2
243.55	17564.95
243.622	17528.75
243.693	17479.12
243.764	17465
243.836	17423.6
243.907	17385.67
243.978	17354.87
244.05	17320.56
244.121	17262.49
244.192	17239.88
244.264	17188.41
244.335	17148.27
244.407	17087.5
244.478	17055.59
244.549	17016.79
244.62	16966.96
244.692	16934.04
244.763	16914.86
244.834	16878.81
244.906	16835.97
244.977	16802.81
245.048	16780.64
245.119	16744.35
245.191	16712.06
245.262	16652.15
245.333	16643.28
245.405	16612.87
245.476	16589.5
245.547	16556.48
245.618	16542.17
245.689	16500.38
245.761	16473.83
245.832	16424.38
245.903	16402.2
245.974	16378.01
246.045	16340.51
246.117	16314.34
246.188	16265.85
246.259	16220.4
246.33	16174.95
246.401	16135.04
246.473	16083.62
246.544	16041.2
246.615	16012.28
246.686	15965.29
246.757	15953.29
246.828	15905.43
246.899	15896.46
246.97	15851.59
247.042	15813.61
247.113	15792.4
247.184	15788.25
247.255	15750.32
247.326	15732.24
247.397	15700.53
247.468	15661.87
247.539	15636.95
247.61	15603.5
247.681	15583.69
247.752	15567.83
247.823	15535.44
247.894	15515.68
247.965	15478.27
248.037	15444.87
248.108	15402.94
248.179	15377.73
248.25	15344.56
248.321	15321.28
248.392	15271.06
248.463	15259.39
248.534	15227.62
248.605	15192.29
248.675	15159.23
248.746	15133.44
248.817	15105.29
248.888	15082.15
248.959	15032.16
249.03	15007.58
249.101	14976.1
249.172	14943.71
249.243	14892.9
249.314	14884.47
249.385	14847.16
249.456	14826.67
249.527	14798.95
249.598	14777.26
249.669	14751.91
249.739	14721.88
249.81	14697.44
249.881	14649.04
249.952	14620.69
250.023	14594.47
250.094	14554.94
250.165	14512.67
250.235	14490.88
250.306	14467.98
250.377	14419.54
250.448	14407.05
250.519	14357.26
250.59	14344.24
250.66	14310.88
250.731	14295.26
250.802	14256.94
250.873	14250.48
250.944	14223.82
251.014	14184.82
251.085	14179.28
251.156	14156.86
251.227	14160.77
251.297	14149.97
251.368	14148.43
251.439	14131.94
251.51	14114.64
251.58	14080.07
251.651	14050.33
251.722	14033.26
251.792	13983.32
251.863	13960.67
251.934	13954.45
252.005	13955.65
252.075	13929.91
252.146	13923.26
252.217	13918.29
252.287	13906.92
252.358	13869.46
252.429	13867
252.499	13841.93
252.57	13818.79
252.641	13806.02
252.711	13771.75
252.782	13728.12
252.852	13723.25
252.923	13702.57
252.994	13684.93
253.064	13673.07
253.135	13638.89
253.205	13614.4
253.276	13623.37
253.347	13628.67
253.417	13596.42
253.488	13569.61
253.558	13542.81
253.629	13514.51
253.699	13491.42
253.77	13483.71
253.841	13452.67
253.911	13437.53
253.982	13415.4
254.052	13400.12
254.123	13378.72
254.193	13353.65
254.264	13373.61
254.334	13336.2
254.405	13294.31
254.475	13259.26
254.546	13244.65
254.616	13241.76
254.687	13217.23
254.757	13191.82
254.827	13158.85
254.898	13131.37
254.968	13111.56
255.039	13085.19
255.109	13073.67
255.18	13044.89
255.25	12993.69
255.321	12987.23
255.391	12945.82
255.461	12957.1
255.532	12904.7
255.602	12874.38
255.673	12826.8
255.743	12799.86
255.813	12754.88
255.884	12751.31
255.954	12738.59
256.024	12728.13
256.095	12701.33
256.165	12669.61
256.235	12655.34
256.306	12622.03
256.376	12619.04
256.446	12610.22
256.517	12597.06
256.587	12589.15
256.657	12569.92
256.728	12561
256.798	12536.42
256.868	12508.36
256.938	12469.22
257.009	12465.32
257.079	12456.35
257.149	12474.23
257.219	12422.85
257.29	12414.17
257.36	12370.69
257.43	12364.71
257.5	12318.49
257.571	12298.19
257.641	12289.85
257.711	12259.15
257.781	12260.59
257.852	12240.93
257.922	12196.44
257.992	12173.78
258.062	12148.76
258.132	12142.01
258.202	12111.94
258.273	12103.07
258.343	12107.12
258.413	12084.7
258.483	12068.94
258.553	12036.02
258.623	12000.78
258.693	11989.41
258.764	11985.26
258.834	11980.25
258.904	11957.4
258.974	11937.3
259.044	11914.89
259.114	11897.54
259.184	11880.67
259.254	11848.9
259.324	11808.85
259.394	11798.87
259.464	11796.46
259.535	11772.22
259.605	11745.51
259.675	11721.66
259.745	11702.14
259.815	11667.67
259.885	11638.95
259.955	11648.59
260.025	11620.93
260.095	11602.66
260.165	11594.66
260.235	11601.89
260.305	11583.19
260.375	11553.16
260.445	11562.75
260.515	11567.33
260.585	11561.35
260.655	11541.21
260.725	11541.78
260.795	11537.16
260.865	11545.45
260.934	11518.7
261.004	11517.44
261.074	11498.17
261.144	11502.41
261.214	11490.89
261.284	11479.03
261.354	11474.41
261.424	11442.88
261.494	11451.12
261.564	11430.3
261.634	11413.72
261.703	11357.14
261.773	11344.61
261.843	11333.62
261.913	11314.01
