Data from 20250703_urea_0.1M_MAYP1162681_17-31-04-881.txt Node
Date: Thu Jul 03 17:31:04 BST 2025
User: adleo
Spectrometer: MAYP116268
Trigger mode: 0
Integration Time (sec): 1.000000E0
Scans to average: 1
Electric dark correction enabled: true
Nonlinearity correction enabled: true
Boxcar width: 10
XAxis mode: Wavelengths
Number of Pixels in Spectrum: 2068
>>>>>Begin Spectral Data<<<<<
179.565	1327.95
179.642	1389.74
179.718	1438.41
179.795	1484.55
179.871	1521.68
179.948	1545.8
180.024	1569.49
180.101	1594.16
180.177	1609.4
180.254	1635.75
180.33	1660.63
180.407	1726.03
180.483	1833.03
180.56	1934.23
180.636	2028.68
180.712	2015.88
180.789	2028.25
180.865	2043.27
180.942	2050.4
181.018	2056.63
181.095	2070.47
181.171	2077.99
181.248	2079.8
181.324	2095.16
181.4	2101.97
181.477	2116.1
181.553	2128.32
181.63	2149.21
181.706	2169.43
181.782	2180.65
181.859	2180.89
181.935	2186.26
182.011	2178.08
182.088	2196.88
182.164	2215.87
182.24	2230
182.317	2238.18
182.393	2236.28
182.469	2247.93
182.546	2266.11
182.622	2274.63
182.698	2270.72
182.775	2281.15
182.851	2297.14
182.927	2292.04
183.003	2288.24
183.08	2277.91
183.156	2285.29
183.232	2282.67
183.308	2266.58
183.385	2273.39
183.461	2288.62
183.537	2288.76
183.613	2304.75
183.69	2291.9
183.766	2283.33
183.842	2289.8
183.918	2297.23
183.995	2309.79
184.071	2316.26
184.147	2310.07
184.223	2295.9
184.299	2311.8
184.375	2299.71
184.452	2307.19
184.528	2359.18
184.604	2369.98
184.68	2384.06
184.756	2393.78
184.832	2399.3
184.908	2406.62
184.985	2406.91
185.061	2391.63
185.137	2401.87
185.213	2387.88
185.289	2389.64
185.365	2378.83
185.441	2378.12
185.517	2392.6
185.593	2389.12
185.669	2387.93
185.745	2397.17
185.822	2415.82
185.898	2403.91
185.974	2412.34
186.05	2403
186.126	2365.11
186.202	2357.92
186.278	2353.3
186.354	2343.73
186.43	2351.97
186.506	2347.78
186.582	2345.17
186.658	2350.78
186.734	2327.8
186.81	2333.6
186.886	2337.5
186.962	2352.02
187.038	2348.78
187.114	2339.12
187.19	2347.49
187.266	2336.5
187.341	2340.17
187.417	2334.03
187.493	2334.03
187.569	2338.22
187.645	2330.27
187.721	2318.99
187.797	2326.31
187.873	2331.07
187.949	2324.27
188.025	2316.89
188.101	2322.36
188.176	2327.45
188.252	2322.98
188.328	2332.87
188.404	2334.06
188.48	2328.88
188.556	2321.78
188.632	2320.88
188.707	2321.5
188.783	2318.97
188.859	2310.79
188.935	2296.56
189.011	2304.65
189.086	2296.94
189.162	2289.04
189.238	2287.19
189.314	2283
189.39	2277.72
189.465	2271.29
189.541	2288.9
189.617	2272.72
189.693	2266.2
189.768	2272.58
189.844	2300.86
189.92	2293.49
189.996	2301.68
190.071	2313.24
190.147	2310.05
190.223	2321.72
190.298	2314.53
190.374	2299.35
190.45	2313.48
190.526	2323.14
190.601	2316.95
190.677	2319.71
190.753	2349.48
190.828	2351.62
190.904	2366.75
190.98	2382.61
191.055	2393.22
191.131	2385.13
191.207	2406.26
191.282	2416.97
191.358	2406.07
191.433	2387.5
191.509	2399.87
191.585	2395.39
191.66	2395.92
191.736	2406.2
191.811	2394.15
191.887	2412.58
191.963	2437.48
192.038	2446.71
192.114	2447
192.189	2450.57
192.265	2447.29
192.34	2422.33
192.416	2423.14
192.491	2419.85
192.567	2422.23
192.642	2424.71
192.718	2422.23
192.793	2407.38
192.869	2401.91
192.944	2403.86
193.02	2414.57
193.095	2421.04
193.171	2425.04
193.246	2424.47
193.322	2419.66
193.397	2421.71
193.473	2404.28
193.548	2384.19
193.624	2386.95
193.699	2384.1
193.775	2401.96
193.85	2403.67
193.925	2412.95
194.001	2413.24
194.076	2408.57
194.152	2397.05
194.227	2388.95
194.302	2379.44
194.378	2386.01
194.453	2383.72
194.529	2399.19
194.604	2382.67
194.679	2375.15
194.755	2356.64
194.83	2370.79
194.905	2370.93
194.981	2376.07
195.056	2373.79
195.131	2381.26
195.207	2379.97
195.282	2372.12
195.357	2349.79
195.433	2365.78
195.508	2354.17
195.583	2361.78
195.659	2374.02
195.734	2379.21
195.809	2378.26
195.884	2391.06
195.96	2391.25
196.035	2410.38
196.11	2405.05
196.185	2419.24
196.261	2422.95
196.336	2456.51
196.411	2441.79
196.486	2445.27
196.561	2443.89
196.637	2450.17
196.712	2469.27
196.787	2473.7
196.862	2491.84
196.937	2504.88
197.013	2512.17
197.088	2525.93
197.163	2547.41
197.238	2568.76
197.313	2570.29
197.388	2588
197.464	2618.54
197.539	2628.54
197.614	2620.59
197.689	2634.69
197.764	2651.41
197.839	2672.18
197.914	2666.46
197.989	2685.9
198.065	2705.19
198.14	2759.3
198.215	2786.84
198.29	2800.05
198.365	2816.39
198.44	2826.35
198.515	2854.47
198.59	2872.58
198.665	2896.74
198.74	2906.8
198.815	2908.52
198.89	2934.59
198.965	2964.82
199.04	2961.77
199.115	2979.55
199.19	3021.01
199.265	3022.49
199.34	3035.6
199.415	3074.24
199.49	3097.65
199.565	3109.42
199.64	3132.22
199.715	3128.54
199.79	3139.27
199.865	3144.33
199.94	3141.56
200.015	3179.54
200.09	3185.55
200.165	3191.65
200.24	3201.19
200.315	3244.88
200.39	3258.09
200.464	3263.91
200.539	3265.63
200.614	3284.81
200.689	3313
200.764	3320.5
200.839	3341.14
200.914	3343.72
200.989	3329.83
201.063	3345.67
201.138	3331.46
201.213	3334.04
201.288	3311.43
201.363	3317.2
201.438	3322.73
201.512	3341.52
201.587	3317.71
201.662	3322.24
201.737	3338.56
201.812	3348.16
201.886	3310.43
201.961	3321.56
202.036	3310.44
202.111	3310.16
202.186	3277.78
202.26	3257.93
202.335	3238.27
202.41	3231.93
202.485	3216.52
202.559	3198.16
202.634	3172.69
202.709	3185.7
202.784	3167.96
202.858	3175.02
202.933	3156.41
203.008	3149.26
203.082	3130.37
203.157	3136.91
203.232	3099.34
203.306	3081.06
203.381	3054.49
203.456	3041.38
203.53	3025.05
203.605	3015.62
203.68	3001.45
203.754	3008.26
203.829	3007.93
203.904	3002.97
203.978	3006.02
204.053	3031.01
204.127	3040.27
204.202	3061.39
204.277	3062.21
204.351	3076.94
204.426	3093.84
204.5	3114.73
204.575	3106.53
204.65	3150.48
204.724	3178.22
204.799	3224.57
204.873	3260.04
204.948	3302.08
205.022	3333.72
205.097	3372.73
205.171	3436.79
205.246	3495.63
205.32	3547.13
205.395	3599.9
205.469	3651.03
205.544	3722.51
205.618	3767
205.693	3850.25
205.767	3909.56
205.842	4008.85
205.916	4083.08
205.991	4152.37
206.065	4242.28
206.14	4352.8
206.214	4440.5
206.289	4523.49
206.363	4629.97
206.438	4729.33
206.512	4839.47
206.586	4964.53
206.661	5081.5
206.735	5164.11
206.81	5278.2
206.884	5413.37
206.958	5521.53
207.033	5662.55
207.107	5791.45
207.181	5952.16
207.256	6072.31
207.33	6225.1
207.405	6370.22
207.479	6525.37
207.553	6674.29
207.628	6793.94
207.702	6943.94
207.776	7078.61
207.851	7229
207.925	7397.68
207.999	7547.18
208.073	7694.35
208.148	7854.58
208.222	7998.82
208.296	8194.58
208.371	8372.14
208.445	8541.47
208.519	8733.74
208.593	8906.51
208.668	9071.82
208.742	9240.6
208.816	9403.26
208.89	9583.12
208.965	9743.65
209.039	9914.78
209.113	10099.39
209.187	10288.99
209.261	10450.89
209.336	10641.38
209.41	10834.82
209.484	10999.91
209.558	11192.8
209.632	11369.41
209.707	11547.23
209.781	11735.96
209.855	11923.25
209.929	12110.75
210.003	12287.16
210.077	12451.96
210.151	12664.96
210.226	12859.7
210.3	13052.42
210.374	13243.78
210.448	13408.59
210.522	13582.75
210.596	13759.13
210.67	13928.72
210.744	14134.65
210.818	14330.31
210.892	14510.83
210.966	14658.29
211.041	14825.7
211.115	14974.99
211.189	15157.96
211.263	15334.62
211.337	15496.68
211.411	15649.52
211.485	15786.31
211.559	15944.84
211.633	16094.22
211.707	16205.84
211.781	16361.42
211.855	16464.37
211.929	16600.33
212.003	16724.78
212.077	16881.17
212.151	17031.93
212.225	17182.34
212.299	17315.11
212.373	17443.94
212.447	17571.74
212.52	17730.39
212.594	17867.79
212.668	18015.88
212.742	18126.2
212.816	18238.05
212.89	18345.9
212.964	18469.7
213.038	18603.96
213.112	18740.24
213.186	18880
213.26	18974.69
213.333	19038.4
213.407	19164.66
213.481	19285.18
213.555	19411.92
213.629	19505.17
213.703	19592.64
213.777	19697.93
213.85	19784
213.924	19921.79
213.998	20022.65
214.072	20120.72
214.146	20212.29
214.219	20293.73
214.293	20377.49
214.367	20475.18
214.441	20587.81
214.515	20684
214.588	20746.42
214.662	20799.48
214.736	20860.68
214.81	20961.51
214.883	21061.22
214.957	21130.91
215.031	21206.96
215.105	21263.64
215.178	21333.19
215.252	21407.56
215.326	21458.07
215.4	21509.93
215.473	21530.47
215.547	21586.14
215.621	21650.59
215.694	21733.94
215.768	21788.16
215.842	21866.2
215.915	21916.48
215.989	21956.58
216.063	22000.64
216.136	22056.9
216.21	22119.61
216.284	22193.56
216.357	22256.04
216.431	22317.21
216.504	22388.61
216.578	22470.76
216.652	22536.76
216.725	22587.24
216.799	22655.79
216.873	22704.53
216.946	22768.03
217.02	22816.77
217.093	22869.66
217.167	22894.83
217.24	22918.6
217.314	22964.26
217.387	23005.33
217.461	23048.83
217.535	23117.1
217.608	23157.32
217.682	23210.79
217.755	23272.61
217.829	23317.12
217.902	23358.4
217.976	23399.67
218.049	23427.64
218.123	23441.39
218.196	23492.41
218.27	23534.36
218.343	23560.74
218.417	23620.59
218.49	23659.03
218.563	23720.42
218.637	23757.07
218.71	23814.75
218.784	23867.95
218.857	23917.39
218.931	23959.87
219.004	24005.21
219.077	24035.94
219.151	24076.02
219.224	24103.61
219.298	24129.41
219.371	24167.09
219.444	24193.56
219.518	24224.72
219.591	24261.77
219.665	24323.81
219.738	24363.41
219.811	24390.37
219.885	24432.15
219.958	24463.84
220.031	24489.7
220.105	24523.42
220.178	24557.67
220.251	24579.87
220.325	24602.64
220.398	24639.45
220.471	24659.42
220.544	24696.47
220.618	24723.54
220.691	24752.49
220.764	24783.26
220.838	24812.6
220.911	24831.61
220.984	24875.61
221.057	24909.86
221.131	24937.46
221.204	24926.6
221.277	24957.05
221.35	25010.81
221.424	25025.72
221.497	25039.66
221.57	25068.37
221.643	25086.41
221.716	25120.48
221.79	25127.33
221.863	25149.92
221.936	25153.01
222.009	25171.49
222.082	25184.61
222.155	25186.3
222.229	25210.09
222.302	25232.29
222.375	25243.43
222.448	25262.4
222.521	25263.61
222.594	25267.61
222.667	25258.83
222.74	25286.82
222.814	25288.51
222.887	25283.34
222.96	25302.6
223.033	25327.84
223.106	25339.95
223.179	25353.85
223.252	25350.42
223.325	25367.84
223.398	25368.37
223.471	25371.66
223.544	25385.89
223.617	25383.14
223.69	25391.63
223.763	25380.34
223.837	25367.79
223.91	25373.92
223.983	25352.64
224.056	25340.63
224.129	25344.87
224.202	25358.24
224.275	25340.58
224.348	25319.63
224.42	25297.82
224.493	25273.98
224.566	25247.63
224.639	25243.43
224.712	25224.27
224.785	25212.59
224.858	25184.75
224.931	25169.07
225.004	25149.48
225.077	25128.15
225.15	25088.15
225.223	25079.23
225.296	25089.21
225.369	25067.55
225.442	25048.78
225.514	25044.73
225.587	25045.55
225.66	25028.17
225.733	25019.25
225.806	25010.51
225.879	24995.51
225.952	24977.61
226.025	24975.44
226.097	24981.18
226.17	24964
226.243	24923.38
226.316	24898.48
226.389	24897.32
226.461	24877.1
226.534	24884.1
226.607	24868.66
226.68	24880.29
226.753	24854.57
226.825	24819.83
226.898	24823.02
226.971	24798.22
227.044	24784.08
227.117	24769.61
227.189	24761.69
227.262	24755.85
227.335	24737.76
227.407	24716.15
227.48	24698.06
227.553	24677.75
227.626	24647.45
227.698	24623.18
227.771	24618.5
227.844	24594.96
227.916	24584.92
227.989	24558.1
228.062	24526.17
228.134	24527.03
228.207	24512.61
228.28	24486.71
228.352	24455.98
228.425	24426.79
228.498	24405.62
228.57	24366.16
228.643	24339.43
228.716	24314.35
228.788	24270.84
228.861	24249.32
228.934	24240.3
229.006	24221.2
229.079	24195.93
229.151	24165.92
229.224	24131.97
229.296	24113.11
229.369	24126.56
229.442	24102.69
229.514	24071.15
229.587	24057.4
229.659	24015
229.732	23988.66
229.804	23982.49
229.877	24010.32
229.949	24008.1
230.022	24023.25
230.094	24010.91
230.167	24000.87
230.239	23959.73
230.312	23947.97
230.384	23948.59
230.457	23933.69
230.529	23911.79
230.602	23893.9
230.674	23884.25
230.747	23873.6
230.819	23866.75
230.892	23805.4
230.964	23791.9
231.037	23788.37
231.109	23763.88
231.181	23743.19
231.254	23704.85
231.326	23680.35
231.399	23624.88
231.471	23570.2
231.544	23503.79
231.616	23491.44
231.688	23471.81
231.761	23443.03
231.833	23410.38
231.905	23362.25
231.978	23329.27
232.05	23307.91
232.122	23277.43
232.195	23227.23
232.267	23224.77
232.339	23187.16
232.412	23169.95
232.484	23132.67
232.556	23092.94
232.629	23084.36
232.701	23062.32
232.773	23042.46
232.846	23004.75
232.918	22978.57
232.99	22968.78
233.062	22961.21
233.135	22932.57
233.207	22879
233.279	22864.44
233.351	22841.3
233.424	22803.94
233.496	22772.65
233.568	22760.64
233.64	22717.73
233.713	22692.62
233.785	22643.39
233.857	22614.07
233.929	22573.82
234.001	22560.32
234.074	22546.19
234.146	22493.4
234.218	22467.13
234.29	22430.97
234.362	22389.23
234.434	22340.58
234.507	22296.33
234.579	22238.48
234.651	22203.87
234.723	22181.74
234.795	22151.37
234.867	22107.31
234.939	22095.26
235.012	22059.97
235.084	22030.76
235.156	22012.3
235.228	21977.93
235.3	21938.64
235.372	21901.14
235.444	21878.15
235.516	21812.35
235.588	21774.7
235.66	21742.26
235.732	21689.96
235.804	21710.26
235.876	21688.37
235.948	21665.28
236.02	21632.89
236.092	21601.42
236.164	21549.7
236.236	21507.82
236.308	21461.35
236.38	21434.94
236.452	21378.4
236.524	21340.91
236.596	21321.53
236.668	21291.4
236.74	21257.09
236.812	21220.7
236.884	21193.27
236.956	21156.26
237.028	21113.03
237.1	21068.64
237.172	21044.88
237.244	21033.94
237.316	20956.09
237.388	20912.81
237.46	20863.99
237.532	20840.95
237.604	20805.2
237.675	20789.92
237.747	20767.36
237.819	20723.56
237.891	20677.48
237.963	20630.4
238.035	20579.51
238.107	20495.36
238.178	20467.65
238.25	20425.86
238.322	20415.07
238.394	20354.87
238.466	20319.02
238.538	20294.2
238.609	20265.04
238.681	20206.64
238.753	20153.72
238.825	20117.62
238.897	20081.67
238.968	20071.79
239.04	20020.47
239.112	20002.45
239.184	19954.01
239.255	19912.18
239.327	19883.37
239.399	19854.26
239.471	19834.21
239.542	19819.42
239.614	19806.89
239.686	19738.65
239.758	19710.02
239.829	19651.76
239.901	19638.27
239.973	19592.78
240.044	19553.07
240.116	19509.41
240.188	19467.67
240.259	19433.51
240.331	19388.4
240.403	19357.95
240.474	19301.23
240.546	19255.06
240.618	19196.46
240.689	19151.36
240.761	19105.29
240.833	19091.21
240.904	19054.93
240.976	19015.36
241.048	18973.92
241.119	18936.04
241.191	18909.3
241.262	18894.07
241.334	18856.15
241.405	18809.64
241.477	18767.09
241.549	18734.8
241.62	18706.37
241.692	18680.2
241.763	18656.21
241.835	18620.55
241.906	18578.72
241.978	18522.14
242.049	18501.56
242.121	18483.97
242.192	18469.28
242.264	18423.25
242.335	18357.81
242.407	18321.52
242.478	18275.02
242.55	18237.14
242.621	18186.16
242.693	18139.27
242.764	18092.33
242.836	18047.95
242.907	18015.08
242.979	17984.19
243.05	17956.34
243.122	17920.87
243.193	17880.87
243.264	17808.05
243.336	17777.02
243.407	17754.85
243.479	17750.41
243.55	17718.22
243.622	17679.62
243.693	17633.26
243.764	17615.38
243.836	17573.64
243.907	17534.71
243.978	17491.28
244.05	17461.74
244.121	17409.16
244.192	17392.34
244.264	17335.23
244.335	17310.03
244.407	17257.26
244.478	17229.79
244.549	17187.96
244.62	17134.41
244.692	17095.13
244.763	17075.86
244.834	17024.43
244.906	16984.05
244.977	16945.64
245.048	16920.82
245.119	16875.03
245.191	16827.7
245.262	16766.59
245.333	16749.58
245.405	16715.17
245.476	16696.85
245.547	16658.15
245.618	16634.2
245.689	16597.86
245.761	16567.78
245.832	16525.71
245.903	16503.06
245.974	16468.45
246.045	16423.97
246.117	16411.19
246.188	16365.79
246.259	16319.33
246.33	16284.43
246.401	16246.31
246.473	16190.54
246.544	16147.46
246.615	16125.48
246.686	16095.93
246.757	16079.26
246.828	16033.51
246.899	16022.33
246.97	15975.1
247.042	15939.72
247.113	15915.28
247.184	15905.16
247.255	15874.46
247.326	15848.67
247.397	15808.04
247.468	15784.13
247.539	15752.66
247.61	15708.02
247.681	15688.12
247.752	15675.1
247.823	15635.91
247.894	15604.58
247.965	15568.24
248.037	15527.85
248.108	15480.56
248.179	15446
248.25	15409.08
248.321	15391
248.392	15336.83
248.463	15325.64
248.534	15285.35
248.605	15269.01
248.675	15233
248.746	15200.9
248.817	15173.09
248.888	15151.73
248.959	15092.15
249.03	15068.63
249.101	15038.79
249.172	15004.52
249.243	14949.28
249.314	14941.08
249.385	14906.86
249.456	14890.61
249.527	14863.09
249.598	14843.28
249.669	14814.64
249.739	14793.72
249.81	14762.1
249.881	14725.51
249.952	14695.77
250.023	14676.68
250.094	14630.02
250.165	14581.24
250.235	14558.87
250.306	14532.65
250.377	14495.58
250.448	14483.72
250.519	14444.15
250.59	14430.55
250.66	14402.88
250.731	14396.37
250.802	14370.87
250.873	14356.22
250.944	14327.73
251.014	14297.22
251.085	14296.83
251.156	14275.67
251.227	14263.33
251.297	14257.88
251.368	14245.88
251.439	14230.26
251.51	14210.45
251.58	14179.02
251.651	14145.17
251.722	14131.05
251.792	14089.69
251.863	14065.15
251.934	14053.39
252.005	14055.7
252.075	14019.69
252.146	14004.85
252.217	14000.27
252.287	13979.35
252.358	13948.11
252.429	13943
252.499	13910.41
252.57	13883.7
252.641	13870.74
252.711	13849.28
252.782	13799.92
252.852	13795.68
252.923	13767.96
252.994	13746.27
253.064	13730.55
253.135	13705.24
253.205	13678.06
253.276	13672.03
253.347	13666.29
253.417	13625.85
253.488	13595.38
253.558	13575.47
253.629	13547.75
253.699	13522.54
253.77	13503.02
253.841	13481.42
253.911	13453.41
253.982	13431.24
254.052	13413.69
254.123	13389.3
254.193	13367.32
254.264	13391.76
254.334	13353.05
254.405	13326.24
254.475	13292.69
254.546	13274.37
254.616	13269.75
254.687	13244.97
254.757	13223.27
254.827	13200.23
254.898	13186.93
254.968	13167.64
255.039	13138.67
255.109	13125.71
255.18	13091.09
255.25	13051.32
255.321	13033.25
255.391	13002.25
255.461	13008.13
255.532	12957.32
255.602	12933.51
255.673	12884.53
255.743	12848.28
255.813	12805.09
255.884	12791.88
255.954	12785.37
256.024	12781.03
256.095	12762.81
256.165	12734.27
256.235	12721.69
256.306	12694.17
256.376	12683.95
256.446	12667.99
256.517	12655.07
256.587	12651.02
256.657	12635.69
256.728	12623.88
256.798	12607.16
256.868	12584.36
256.938	12561.89
257.009	12555.43
257.079	12544.35
257.149	12556.4
257.219	12512.39
257.29	12500.24
257.36	12454.45
257.43	12441.67
257.5	12399.16
257.571	12364.06
257.641	12350.52
257.711	12312.39
257.781	12296.1
257.852	12285.78
257.922	12242.74
257.992	12220.47
258.062	12192.41
258.132	12178.82
258.202	12155.54
258.273	12137.94
258.343	12144.64
258.413	12117.7
258.483	12097.31
258.553	12059.57
258.623	12027.27
258.693	12015.36
258.764	12012.57
258.834	12013.58
258.904	11987.89
258.974	11957.62
259.044	11946
259.114	11924.89
259.184	11915.93
259.254	11894.24
259.324	11848.16
259.394	11844.59
259.464	11851.15
259.535	11831.24
259.605	11801.21
259.675	11770.07
259.745	11757.2
259.815	11718.79
259.885	11695.08
259.955	11704.14
260.025	11682.98
260.095	11667.12
260.165	11651.07
260.235	11650.4
260.305	11626.83
260.375	11597.09
260.445	11608.46
260.515	11607.26
260.585	11608.95
260.655	11590.92
260.725	11587.74
260.795	11586.1
260.865	11591.79
260.934	11556.56
261.004	11547.54
261.074	11537.18
261.144	11539.83
261.214	11524.36
261.284	11506.72
261.354	11497.47
261.424	11463.68
261.494	11472.93
261.564	11451.87
261.634	11448.06
261.703	11405.99
261.773	11390.76
261.843	11384.83
261.913	11361.99
