Data from 20250703_urea_0.1M_MAYP1162681_23-01-05-298.txt Node
Date: Thu Jul 03 23:01:05 BST 2025
User: adleo
Spectrometer: MAYP116268
Trigger mode: 0
Integration Time (sec): 1.000000E0
Scans to average: 1
Electric dark correction enabled: true
Nonlinearity correction enabled: true
Boxcar width: 10
XAxis mode: Wavelengths
Number of Pixels in Spectrum: 2068
>>>>>Begin Spectral Data<<<<<
179.565	1374.03
179.642	1440.66
179.718	1494.13
179.795	1539.24
179.871	1576.8
179.948	1599.19
180.024	1622.69
180.101	1651.3
180.177	1665.29
180.254	1693.95
180.33	1721.69
180.407	1791.62
180.483	1900.8
180.56	2007.44
180.636	2101.6
180.712	2090.13
180.789	2104.21
180.865	2118.9
180.942	2126.84
181.018	2138.35
181.095	2150.77
181.171	2158.43
181.248	2157.82
181.324	2173.19
181.4	2182.04
181.477	2195.5
181.553	2209.11
181.63	2231.18
181.706	2248.18
181.782	2258.59
181.859	2255.97
181.935	2260.54
182.011	2253.31
182.088	2273.25
182.164	2290.73
182.24	2307.09
182.317	2318.18
182.393	2317.04
182.469	2332.88
182.546	2348.78
182.622	2355.35
182.698	2350.92
182.775	2361.01
182.851	2377.62
182.927	2371.01
183.003	2364.68
183.08	2358.06
183.156	2366.29
183.232	2363.15
183.308	2349.06
183.385	2359.34
183.461	2376.43
183.537	2376.33
183.613	2390.33
183.69	2379.71
183.766	2369.47
183.842	2378.47
183.918	2381.99
183.995	2392.37
184.071	2394.56
184.147	2387.42
184.223	2374.81
184.299	2391.05
184.375	2379.57
184.452	2385.62
184.528	2433.18
184.604	2445.7
184.68	2457.84
184.756	2465.46
184.832	2469.89
184.908	2476.88
184.985	2477.5
185.061	2463.27
185.137	2474.31
185.213	2464.46
185.289	2462.98
185.365	2454.37
185.441	2452.13
185.517	2466.9
185.593	2465.71
185.669	2463.28
185.745	2477.7
185.822	2495.27
185.898	2483.55
185.974	2494.4
186.05	2485.12
186.126	2454.98
186.202	2447.46
186.278	2444.61
186.354	2438.18
186.43	2447.7
186.506	2443.94
186.582	2443.37
186.658	2449.51
186.734	2425.43
186.81	2425
186.886	2427.95
186.962	2439.57
187.038	2437.18
187.114	2427.23
187.19	2435.85
187.266	2424.47
187.341	2423.42
187.417	2413.95
187.493	2412.48
187.569	2415.52
187.645	2410.67
187.721	2393
187.797	2401.05
187.873	2404.47
187.949	2395.1
188.025	2387.14
188.101	2391.05
188.176	2396.62
188.252	2390.86
188.328	2401.42
188.404	2403.99
188.48	2399.23
188.556	2396.75
188.632	2394.9
188.707	2395.14
188.783	2390.14
188.859	2385.62
188.935	2374.9
189.011	2383.09
189.086	2378.9
189.162	2372.9
189.238	2370.52
189.314	2369.81
189.39	2364.62
189.465	2357.43
189.541	2378.19
189.617	2362.77
189.693	2357.72
189.768	2360.82
189.844	2389.87
189.92	2379.83
189.996	2386.02
190.071	2398.92
190.147	2395.73
190.223	2406.11
190.298	2398.54
190.374	2386.11
190.45	2400.06
190.526	2407.15
190.601	2401.49
190.677	2403.82
190.753	2429.3
190.828	2433.73
190.904	2453.11
190.98	2471.11
191.055	2480.54
191.131	2468.44
191.207	2490.58
191.282	2501.1
191.358	2492.05
191.433	2475.09
191.509	2488.13
191.585	2489.32
191.66	2490.7
191.736	2497.04
191.811	2487.89
191.887	2506.85
191.963	2534.37
192.038	2537.95
192.114	2538.52
192.189	2543.13
192.265	2539.95
192.34	2519.94
192.416	2518.27
192.491	2509.93
192.567	2510.46
192.642	2514.41
192.718	2515.6
192.793	2501.46
192.869	2495.41
192.944	2496.94
193.02	2505.99
193.095	2511.65
193.171	2517.08
193.246	2516.84
193.322	2516.13
193.397	2516.89
193.473	2500.12
193.548	2477.69
193.624	2485.55
193.699	2485.79
193.775	2503.75
193.85	2504.75
193.925	2513.84
194.001	2512.18
194.076	2505.46
194.152	2494.7
194.227	2486.7
194.302	2475.85
194.378	2482.23
194.453	2480.32
194.529	2494.66
194.604	2477.8
194.679	2471.32
194.755	2450.14
194.83	2463.05
194.905	2458.53
194.981	2466.48
195.056	2460.15
195.131	2469.05
195.207	2468.58
195.282	2456.34
195.357	2435.15
195.433	2454.38
195.508	2439.33
195.583	2446.57
195.659	2462.24
195.734	2470.33
195.809	2468.86
195.884	2481.09
195.96	2479.76
196.035	2497.42
196.11	2489.99
196.185	2503.61
196.261	2511.23
196.336	2544.89
196.411	2531.17
196.486	2540.17
196.561	2536.65
196.637	2546.5
196.712	2561.75
196.787	2566.7
196.862	2583.27
196.937	2595.99
197.013	2600.23
197.088	2614.8
197.163	2642.96
197.238	2662.93
197.313	2660.84
197.388	2677.89
197.464	2710.73
197.539	2722.35
197.614	2714.2
197.689	2729.83
197.764	2750.42
197.839	2770.76
197.914	2762.8
197.989	2786.49
198.065	2800.5
198.14	2853.52
198.215	2880.59
198.29	2894.94
198.365	2906.91
198.44	2922.44
198.515	2950.81
198.59	2968.35
198.665	2995.57
198.74	3002.01
198.815	3003.68
198.89	3031.42
198.965	3062.57
199.04	3058.04
199.115	3075.48
199.19	3121.49
199.265	3125.21
199.34	3134.32
199.415	3173.36
199.49	3196.76
199.565	3207.88
199.64	3236.02
199.715	3233.15
199.79	3243.51
199.865	3250.09
199.94	3250.18
200.015	3281.82
200.09	3289.93
200.165	3296.7
200.24	3302.53
200.315	3346.12
200.39	3362.11
200.464	3368.55
200.539	3368.17
200.614	3386.82
200.689	3413.93
200.764	3421.62
200.839	3439.12
200.914	3445.18
200.989	3430.09
201.063	3447.08
201.138	3427.1
201.213	3428.87
201.288	3411.78
201.363	3415.22
201.438	3416.79
201.512	3430.72
201.587	3410.48
201.662	3413.87
201.737	3429.05
201.812	3438.69
201.886	3402.11
201.961	3417.06
202.036	3403.41
202.111	3403.22
202.186	3374.84
202.26	3357.28
202.335	3335.04
202.41	3332.75
202.485	3315.1
202.559	3294.25
202.634	3267.67
202.709	3280.16
202.784	3258.03
202.858	3256.26
202.933	3239.95
203.008	3233.65
203.082	3215.95
203.157	3223.11
203.232	3181.39
203.306	3162.25
203.381	3134.91
203.456	3114.92
203.53	3092.91
203.605	3080.71
203.68	3065.3
203.754	3064.34
203.829	3058.72
203.904	3051.9
203.978	3055.04
204.053	3071.26
204.127	3074.74
204.202	3089.05
204.277	3084.86
204.351	3098.83
204.426	3112.81
204.5	3126.84
204.575	3116.44
204.65	3156.91
204.724	3174.53
204.799	3212.14
204.873	3238.35
204.948	3268.79
205.022	3295.32
205.097	3325.74
205.171	3379.38
205.246	3429.38
205.32	3471.98
205.395	3517.87
205.469	3552.62
205.544	3604.22
205.618	3641.66
205.693	3710.21
205.767	3756.45
205.842	3844.43
205.916	3898.9
205.991	3953.1
206.065	4026.57
206.14	4115.83
206.214	4179.45
206.289	4246.99
206.363	4339.78
206.438	4420.51
206.512	4509.36
206.586	4611.23
206.661	4701.3
206.735	4760.92
206.81	4846.46
206.884	4956.1
206.958	5035.07
207.033	5152.24
207.107	5257.65
207.181	5394.32
207.256	5488.94
207.33	5610.07
207.405	5732.05
207.479	5857.64
207.553	5974.81
207.628	6066.56
207.702	6189.44
207.776	6295.11
207.851	6413.43
207.925	6544.2
207.999	6663.63
208.073	6784.66
208.148	6909.12
208.222	7017.89
208.296	7180.24
208.371	7327.33
208.445	7459.89
208.519	7619.42
208.593	7758.51
208.668	7882.97
208.742	8009.79
208.816	8140.12
208.89	8285.07
208.965	8410.78
209.039	8552.7
209.113	8701.05
209.187	8856.65
209.261	8981.83
209.336	9133.89
209.41	9283.32
209.484	9414.06
209.558	9565.84
209.632	9711.41
209.707	9855.41
209.781	10014.06
209.855	10165.36
209.929	10314.82
210.003	10458.95
210.077	10592.51
210.151	10782.46
210.226	10954.63
210.3	11119.3
210.374	11274.89
210.448	11411.94
210.522	11553.15
210.596	11692.1
210.67	11833.99
210.744	12013.18
210.818	12181.87
210.892	12339.39
210.966	12464.32
211.041	12613.94
211.115	12735.08
211.189	12886.92
211.263	13029.31
211.337	13158.79
211.411	13298.05
211.485	13413.94
211.559	13546.55
211.633	13670.97
211.707	13751.13
211.781	13881
211.855	13960.15
211.929	14074.4
212.003	14172.79
212.077	14301.93
212.151	14437.62
212.225	14561.27
212.299	14669
212.373	14767.34
212.447	14870.21
212.52	15015.15
212.594	15122.88
212.668	15248.21
212.742	15337.58
212.816	15442.13
212.89	15543.59
212.964	15646.64
213.038	15751.72
213.112	15874.58
213.186	15989.39
213.26	16072.3
213.333	16124.88
213.407	16225.47
213.481	16321.39
213.555	16433.69
213.629	16514.42
213.703	16587.58
213.777	16693.9
213.85	16759.4
213.924	16880.85
213.998	16977.24
214.072	17067.84
214.146	17145.15
214.219	17228.76
214.293	17312.53
214.367	17397.88
214.441	17498.36
214.515	17571.71
214.588	17637.25
214.662	17680.04
214.736	17749.68
214.81	17829.25
214.883	17916.62
214.957	17990.45
215.031	18061.87
215.105	18108.38
215.178	18173.29
215.252	18232.08
215.326	18260.8
215.4	18312.47
215.473	18334.01
215.547	18376.9
215.621	18422.82
215.694	18493.03
215.768	18527.78
215.842	18580.26
215.915	18626.66
215.989	18662.42
216.063	18709.74
216.136	18769.21
216.21	18825.74
216.284	18890.36
216.357	18954.84
216.431	19003.41
216.504	19062.45
216.578	19138.2
216.652	19207.26
216.725	19260.27
216.799	19335.44
216.873	19392.16
216.946	19458.28
217.02	19512.68
217.093	19568.39
217.167	19595.43
217.24	19628.73
217.314	19685.01
217.387	19731.47
217.461	19786.36
217.535	19847.7
217.608	19886.84
217.682	19931.46
217.755	19994.06
217.829	20035.51
217.902	20079.41
217.976	20122.83
218.049	20167.74
218.123	20197.91
218.196	20243.93
218.27	20280.8
218.343	20307.4
218.417	20355.5
218.49	20384.99
218.563	20445.09
218.637	20493.28
218.71	20566.83
218.784	20622.2
218.857	20675.22
218.931	20729
219.004	20774.64
219.077	20823.85
219.151	20871.37
219.224	20912.91
219.298	20954.89
219.371	21005.98
219.444	21042.08
219.518	21087.62
219.591	21124.54
219.665	21197.61
219.738	21247.78
219.811	21282.29
219.885	21329.05
219.958	21382.02
220.031	21429.2
220.105	21468.77
220.178	21511.72
220.251	21541.46
220.325	21587.92
220.398	21627.93
220.471	21669
220.544	21710.69
220.618	21740.96
220.691	21779.43
220.764	21815.19
220.838	21854.43
220.911	21879.16
220.984	21929
221.057	21969.88
221.131	22012.54
221.204	22009.88
221.277	22068.07
221.35	22130.45
221.424	22166.12
221.497	22199.72
221.57	22236.5
221.643	22274.97
221.716	22306.59
221.79	22321.59
221.863	22343.18
221.936	22375.48
222.009	22393.7
222.082	22421.47
222.155	22437.72
222.229	22489.35
222.302	22526.67
222.375	22542.53
222.448	22569.28
222.521	22593.63
222.594	22604.57
222.667	22605.39
222.74	22636.63
222.814	22639.24
222.887	22644.25
222.96	22675.4
223.033	22695.07
223.106	22717.2
223.179	22738.27
223.252	22754.13
223.325	22787.35
223.398	22806.97
223.471	22822.79
223.544	22845.69
223.617	22858.95
223.69	22877.31
223.763	22863.72
223.837	22869.94
223.91	22890.91
223.983	22886.47
224.056	22882.14
224.129	22908.32
224.202	22934.83
224.275	22937.82
224.348	22941.73
224.42	22949.3
224.493	22936.18
224.566	22940.28
224.639	22945.63
224.712	22942.55
224.785	22949.01
224.858	22935.75
224.931	22935.22
225.004	22934.25
225.077	22942.98
225.15	22924.42
225.223	22933.05
225.296	22974.57
225.369	22962.17
225.442	22964.87
225.514	22974.9
225.587	22982.57
225.66	22977.17
225.733	22978.95
225.806	22984.55
225.879	22977.12
225.952	22963.86
226.025	22972.59
226.097	22982.72
226.17	22991.35
226.243	22968.73
226.316	22962.56
226.389	22968.49
226.461	22976.45
226.534	22969.12
226.607	22965.94
226.68	22989.71
226.753	22976.45
226.825	22931.56
226.898	22948.57
226.971	22935.65
227.044	22937.24
227.117	22937.53
227.189	22938.06
227.262	22945.78
227.335	22947.85
227.407	22940.62
227.48	22935.75
227.553	22937.1
227.626	22933.39
227.698	22912.46
227.771	22918.83
227.844	22895.2
227.916	22889.71
227.989	22864.68
228.062	22855.52
228.134	22862.37
228.207	22843.95
228.28	22830.21
228.352	22831.08
228.425	22809.53
228.498	22817.05
228.57	22802.73
228.643	22809.09
228.716	22799.21
228.788	22787.11
228.861	22762.81
228.934	22766.18
229.006	22754.66
229.079	22731.76
229.151	22703.74
229.224	22679.88
229.296	22666.19
229.369	22692.27
229.442	22692.95
229.514	22672.94
229.587	22683.02
229.659	22650.33
229.732	22640.59
229.804	22647.39
229.877	22656.93
229.949	22664.02
230.022	22668.36
230.094	22650.47
230.167	22634.08
230.239	22611.81
230.312	22585.73
230.384	22599.85
230.457	22590.21
230.529	22591.27
230.602	22583.89
230.674	22568.03
230.747	22575.55
230.819	22574.78
230.892	22523.34
230.964	22510.71
231.037	22499.19
231.109	22474.89
231.181	22473.16
231.254	22441.72
231.326	22419.31
231.399	22404.46
231.471	22375.87
231.544	22329.49
231.616	22330.89
231.688	22315.75
231.761	22299.51
231.833	22289.86
231.905	22240.64
231.978	22212.93
232.05	22186.22
232.122	22169.2
232.195	22145.53
232.267	22139.99
232.339	22111.93
232.412	22118.88
232.484	22090.48
232.556	22062.38
232.629	22067.01
232.701	22051.73
232.773	22043.63
232.846	22018.76
232.918	21993.3
232.99	21980.53
233.062	21972.57
233.135	21944.47
233.207	21908.37
233.279	21897.18
233.351	21870.33
233.424	21854.52
233.496	21824.11
233.568	21829.46
233.64	21790.99
233.713	21779.86
233.785	21752
233.857	21735.47
233.929	21686.25
234.001	21678.44
234.074	21678.44
234.146	21624.89
234.218	21597.13
234.29	21571.87
234.362	21531.29
234.434	21484.53
234.507	21442.84
234.579	21391.12
234.651	21356.66
234.723	21339.26
234.795	21310.39
234.867	21279.88
234.939	21270.29
235.012	21246.87
235.084	21214.14
235.156	21196.4
235.228	21156.69
235.3	21120.25
235.372	21092.87
235.444	21084.54
235.516	21028.53
235.588	20993.3
235.66	20967.22
235.732	20927.66
235.804	20957.39
235.876	20953.97
235.948	20940.91
236.02	20914.21
236.092	20885.39
236.164	20855.75
236.236	20813.82
236.308	20767.7
236.38	20746.93
236.452	20702.74
236.524	20673.63
236.596	20660.95
236.668	20640.61
236.74	20616.66
236.812	20596.47
236.884	20573.96
236.956	20543.31
237.028	20510.25
237.1	20473
237.172	20457.96
237.244	20440.37
237.316	20372.17
237.388	20322.97
237.46	20284.17
237.532	20265.67
237.604	20227.31
237.675	20219.16
237.747	20195.74
237.819	20171.17
237.891	20137.19
237.963	20099.5
238.035	20067.7
238.107	19993.05
238.178	19974.93
238.25	19929.97
238.322	19911.85
238.394	19850.98
238.466	19808.91
238.538	19787.66
238.609	19764.91
238.681	19707.33
238.753	19655.76
238.825	19620.73
238.897	19597.16
238.968	19580.25
239.04	19538.8
239.112	19534.27
239.184	19485.26
239.255	19453.7
239.327	19422.57
239.399	19391.39
239.471	19366.91
239.542	19336.74
239.614	19321.85
239.686	19253.33
239.758	19242.87
239.829	19191.02
239.901	19182.49
239.973	19149.04
240.044	19120.8
240.116	19085.43
240.188	19045.92
240.259	19019.85
240.331	18975.99
240.403	18940.96
240.474	18887.76
240.546	18839.81
240.618	18785.35
240.689	18740.73
240.761	18700.44
240.833	18685.65
240.904	18638.76
240.976	18599.92
241.048	18567.63
241.119	18529.42
241.191	18508.02
241.262	18483.83
241.334	18457.13
241.405	18411.45
241.477	18373.72
241.549	18338.1
241.62	18304.95
241.692	18292.66
241.763	18265.24
241.835	18228.9
241.906	18196.9
241.978	18151.12
242.049	18133
242.121	18112.72
242.192	18092.86
242.264	18047.9
242.335	17994.79
242.407	17973.92
242.478	17935.13
242.55	17895.32
242.621	17863.76
242.693	17820.29
242.764	17774.51
242.836	17729.4
242.907	17703.04
242.979	17672.82
243.05	17631.23
243.122	17608.54
243.193	17558.27
243.264	17504.87
243.336	17466.32
243.407	17441.26
243.479	17423.62
243.55	17389.45
243.622	17351.43
243.693	17311.91
243.764	17298.22
243.836	17249.5
243.907	17210.27
243.978	17173.84
244.05	17159.09
244.121	17100.87
244.192	17074.65
244.264	17024.05
244.335	16992.53
244.407	16936.62
244.478	16910.98
244.549	16881.63
244.62	16831.99
244.692	16799.41
244.763	16773.29
244.834	16726.49
244.906	16680.85
244.977	16649.48
245.048	16634.63
245.119	16589.67
245.191	16548.51
245.262	16496.55
245.333	16482.24
245.405	16457.22
245.476	16430.28
245.547	16389.31
245.618	16367.09
245.689	16332.83
245.761	16307.86
245.832	16265.59
245.903	16247.37
245.974	16213.58
246.045	16176.86
246.117	16152.76
246.188	16109.33
246.259	16067.45
246.33	16037.37
246.401	16009.08
246.473	15967.29
246.544	15931.19
246.615	15921.69
246.686	15890.65
246.757	15873.54
246.828	15827.85
246.899	15804.86
246.97	15758.39
247.042	15722.29
247.113	15705.66
247.184	15703.59
247.255	15663.68
247.326	15634.81
247.397	15598.99
247.468	15562.41
247.539	15530.36
247.61	15484.71
247.681	15464.03
247.752	15446.24
247.823	15405.03
247.894	15370.9
247.965	15322.65
248.037	15274.4
248.108	15219.74
248.179	15186.19
248.25	15146.57
248.321	15130.33
248.392	15081.4
248.463	15083.38
248.534	15048.09
248.605	15019.36
248.675	14973.96
248.746	14952.41
248.817	14938.05
248.888	14915.1
248.959	14868.49
249.03	14848.82
249.101	14822.94
249.172	14791.41
249.243	14740.46
249.314	14734.14
249.385	14703.39
249.456	14684.78
249.527	14656.25
249.598	14632.19
249.669	14600.33
249.739	14579.36
249.81	14549.57
249.881	14508.21
249.952	14470.17
250.023	14445.25
250.094	14399.99
250.165	14358.73
250.235	14335.54
250.306	14304.4
250.377	14271.86
250.448	14257.98
250.519	14205
250.59	14191.65
250.66	14161.42
250.731	14155.01
250.802	14119.96
250.873	14101.4
250.944	14078.07
251.014	14051.94
251.085	14053.78
251.156	14038.45
251.227	14024.47
251.297	14013.52
251.368	14010.68
251.439	13995.59
251.51	13974.28
251.58	13937.6
251.651	13914.89
251.722	13896.48
251.792	13849.53
251.863	13815.78
251.934	13803.97
252.005	13816.17
252.075	13793.32
252.146	13784.01
252.217	13770.61
252.287	13766.47
252.358	13738.31
252.429	13732.91
252.499	13702.3
252.57	13677.72
252.641	13668.9
252.711	13643.15
252.782	13604.11
252.852	13603.09
252.923	13582.61
252.994	13563.52
253.064	13556.19
253.135	13520.71
253.205	13488.6
253.276	13489.62
253.347	13486.05
253.417	13456.5
253.488	13416.92
253.558	13392.05
253.629	13368.14
253.699	13353.77
253.77	13335.35
253.841	13308.46
253.911	13289.41
253.982	13268.83
254.052	13259.67
254.123	13232.43
254.193	13206.31
254.264	13220.19
254.334	13182.97
254.405	13143.25
254.475	13114.09
254.546	13098.08
254.616	13095.87
254.687	13076.68
254.757	13059.08
254.827	13033.2
254.898	13015.41
254.968	13001.82
255.039	12964.94
255.109	12950.81
255.18	12918.8
255.25	12869.39
255.321	12860.09
255.391	12817.14
255.461	12816.46
255.532	12764.59
255.602	12739.67
255.673	12700.48
255.743	12672.47
255.813	12622.78
255.884	12625.04
255.954	12612.32
256.024	12603.78
256.095	12579.2
256.165	12543.53
256.235	12524.24
256.306	12500.67
256.376	12492.48
256.446	12479.94
256.517	12476.47
256.587	12465.63
256.657	12440.18
256.728	12429.23
256.798	12408.36
256.868	12395.4
256.938	12365.99
257.009	12351.58
257.079	12343.38
257.149	12355.82
257.219	12313.01
257.29	12304.63
257.36	12256.57
257.43	12241.67
257.5	12196.41
257.571	12178.19
257.641	12174.91
257.711	12145.22
257.781	12127.19
257.852	12110.03
257.922	12069.4
257.992	12048.77
258.062	12025.97
258.132	12023.03
258.202	11999.89
258.273	11989.87
258.343	11990.35
258.413	11965.14
258.483	11953.62
258.553	11917.03
258.623	11890.67
258.693	11879.63
258.764	11874.42
258.834	11874.04
258.904	11861.07
258.974	11841.46
259.044	11817.07
259.114	11799.43
259.184	11787.62
259.254	11770.27
259.324	11730.21
259.394	11721.87
259.464	11716.33
259.535	11696.52
259.605	11665.63
259.675	11646.06
259.745	11630.54
259.815	11595.06
259.885	11571.3
259.955	11579.55
260.025	11556.07
260.095	11532.22
260.165	11516.65
260.235	11520.79
260.305	11488.31
260.375	11461.27
260.445	11469.8
260.515	11470.81
260.585	11471.97
260.655	11448.02
260.725	11439.49
260.795	11426.43
260.865	11428.93
260.934	11400.06
261.004	11391.72
261.074	11375.63
261.144	11373.75
261.214	11360.49
261.284	11344.3
261.354	11340.2
261.424	11312.49
261.494	11317.31
261.564	11303.19
261.634	11295
261.703	11248.15
261.773	11239.14
261.843	11229.55
261.913	11211.19
