Data from 20250703_urea_0.1M_MAYP1162681_19-41-05-277.txt Node
Date: Thu Jul 03 19:41:05 BST 2025
User: adleo
Spectrometer: MAYP116268
Trigger mode: 0
Integration Time (sec): 1.000000E0
Scans to average: 1
Electric dark correction enabled: true
Nonlinearity correction enabled: true
Boxcar width: 10
XAxis mode: Wavelengths
Number of Pixels in Spectrum: 2068
>>>>>Begin Spectral Data<<<<<
179.565	1379.01
179.642	1445.74
179.718	1495.98
179.795	1538.41
179.871	1575.57
179.948	1596.17
180.024	1619.04
180.101	1646.59
180.177	1664.87
180.254	1692.27
180.33	1717.1
180.407	1783.83
180.483	1891.74
180.56	1995.23
180.636	2091.53
180.712	2077.59
180.789	2090.33
180.865	2100.46
180.942	2108.31
181.018	2119.44
181.095	2132.67
181.171	2138.81
181.248	2138.95
181.324	2155.7
181.4	2166.41
181.477	2179.3
181.553	2196.71
181.63	2221.69
181.706	2235.73
181.782	2242.34
181.859	2240.82
181.935	2246.72
182.011	2244.24
182.088	2262.52
182.164	2282.9
182.24	2298.26
182.317	2309.73
182.393	2306.3
182.469	2323.43
182.546	2341.66
182.622	2346.52
182.698	2340.14
182.775	2354.23
182.851	2371.22
182.927	2364.75
183.003	2356.04
183.08	2347.61
183.156	2353.52
183.232	2347.33
183.308	2335.67
183.385	2344.04
183.461	2363.89
183.537	2365.8
183.613	2378.74
183.69	2367.08
183.766	2355.23
183.842	2362.79
183.918	2369.13
183.995	2382.79
184.071	2387.55
184.147	2381.07
184.223	2366.7
184.299	2381.61
184.375	2368.8
184.452	2374.95
184.528	2424.56
184.604	2439.41
184.68	2454.16
184.756	2463.16
184.832	2467.54
184.908	2477.01
184.985	2474.87
185.061	2456.07
185.137	2465.88
185.213	2453.07
185.289	2457.02
185.365	2452.02
185.441	2452.59
185.517	2466.55
185.593	2461.69
185.669	2457.12
185.745	2470.27
185.822	2489.58
185.898	2476.63
185.974	2488.01
186.05	2479.25
186.126	2443.3
186.202	2435.59
186.278	2428.73
186.354	2419.59
186.43	2429.4
186.506	2426.45
186.582	2430.02
186.658	2438.58
186.734	2415.31
186.81	2419.64
186.886	2422.12
186.962	2435.06
187.038	2429.59
187.114	2419.49
187.19	2430.97
187.266	2421.87
187.341	2418.68
187.417	2412.26
187.493	2414.02
187.569	2415.68
187.645	2407.4
187.721	2396.74
187.797	2404.35
187.873	2411.25
187.949	2403.5
188.025	2394.59
188.101	2398.3
188.176	2403.4
188.252	2400.26
188.328	2410.82
188.404	2410.01
188.48	2405.3
188.556	2396.68
188.632	2396.01
188.707	2397.49
188.783	2392.68
188.859	2385.49
188.935	2375.64
189.011	2383.45
189.086	2378.4
189.162	2370.97
189.238	2366.64
189.314	2364.45
189.39	2356.6
189.465	2346.27
189.541	2366.98
189.617	2350.32
189.693	2343.09
189.768	2345.76
189.844	2369.28
189.92	2361.95
189.996	2372.57
190.071	2383.42
190.147	2384.57
190.223	2396.8
190.298	2388.9
190.374	2376.62
190.45	2392.18
190.526	2402.42
190.601	2394.56
190.677	2394.71
190.753	2422.95
190.828	2430.8
190.904	2446.71
190.98	2464.75
191.055	2480.28
191.131	2468.32
191.207	2491.46
191.282	2504.69
191.358	2493.74
191.433	2478.12
191.509	2491.44
191.585	2485.3
191.66	2488.4
191.736	2498.49
191.811	2489.39
191.887	2508.11
191.963	2533.21
192.038	2537.97
192.114	2536.02
192.189	2541.63
192.265	2540.68
192.34	2516.63
192.416	2513.63
192.491	2508.58
192.567	2511.53
192.642	2516.96
192.718	2518.53
192.793	2504.72
192.869	2495.77
192.944	2499.68
193.02	2507.58
193.095	2512.01
193.171	2523.96
193.246	2524.06
193.322	2517.73
193.397	2516.96
193.473	2500.01
193.548	2479.91
193.624	2486.05
193.699	2486.48
193.775	2502.91
193.85	2503.58
193.925	2516.2
194.001	2516.2
194.076	2509.87
194.152	2497.72
194.227	2485.58
194.302	2472.35
194.378	2477.25
194.453	2474.58
194.529	2487.11
194.604	2470.87
194.679	2464.97
194.755	2437.31
194.83	2449.17
194.905	2450.27
194.981	2457.17
195.056	2447.04
195.131	2452.18
195.207	2449.8
195.282	2439.27
195.357	2418.65
195.433	2435.03
195.508	2421.12
195.583	2429.55
195.659	2443.93
195.734	2452.98
195.809	2454.84
195.884	2465.31
195.96	2467.5
196.035	2485.64
196.11	2485.97
196.185	2501.16
196.261	2503.97
196.336	2543.25
196.411	2527.91
196.486	2530.77
196.561	2528.2
196.637	2541
196.712	2562.2
196.787	2565.87
196.862	2580.73
196.937	2594.77
197.013	2601.06
197.088	2609.92
197.163	2635.37
197.238	2652
197.313	2652.91
197.388	2667.01
197.464	2703.7
197.539	2714.61
197.614	2708.84
197.689	2721.04
197.764	2738.72
197.839	2758.68
197.914	2749.25
197.989	2772.78
198.065	2790.32
198.14	2843.44
198.215	2874.32
198.29	2885.1
198.365	2901.54
198.44	2915.98
198.515	2946.26
198.59	2961.8
198.665	2995.26
198.74	3004.66
198.815	3010.05
198.89	3034.4
198.965	3069.13
199.04	3062.45
199.115	3082.33
199.19	3126.24
199.265	3129.48
199.34	3140.74
199.415	3180.96
199.49	3203.37
199.565	3214.39
199.64	3237.95
199.715	3233.37
199.79	3239.52
199.865	3247.82
199.94	3244.72
200.015	3279.36
200.09	3283.42
200.165	3294.68
200.24	3300.35
200.315	3345.06
200.39	3357.46
200.464	3367.34
200.539	3367.34
200.614	3388.28
200.689	3412.24
200.764	3422.51
200.839	3441.16
200.914	3447.17
200.989	3433.66
201.063	3452.55
201.138	3435.63
201.213	3439.25
201.288	3418.83
201.363	3426.37
201.438	3424.94
201.512	3443.35
201.587	3424.11
201.662	3430.08
201.737	3444.97
201.812	3454.23
201.886	3419.46
201.961	3434.16
202.036	3419.8
202.111	3413.74
202.186	3382.55
202.26	3366.94
202.335	3344.51
202.41	3338.21
202.485	3323.95
202.559	3305.1
202.634	3278.52
202.709	3292.26
202.784	3270.6
202.858	3276.89
202.933	3259.48
203.008	3257.38
203.082	3240.49
203.157	3242.83
203.232	3203.11
203.306	3182.3
203.381	3152.72
203.456	3130.49
203.53	3116.97
203.605	3104.29
203.68	3088.02
203.754	3092.79
203.829	3088.16
203.904	3079.67
203.978	3084.01
204.053	3105.53
204.127	3110.3
204.202	3127.14
204.277	3127.24
204.351	3143.12
204.426	3155.72
204.5	3174.71
204.575	3167.6
204.65	3207.12
204.724	3231.62
204.799	3272.53
204.873	3308.87
204.948	3347.05
205.022	3376.29
205.097	3404.24
205.171	3464.47
205.246	3523.55
205.32	3570.75
205.395	3621.24
205.469	3665.11
205.544	3724.02
205.618	3761.53
205.693	3834.16
205.767	3889.5
205.842	3979.46
205.916	4045.28
205.991	4106.95
206.065	4183.37
206.14	4277.92
206.214	4354.3
206.289	4436.57
206.363	4539.16
206.438	4627.93
206.512	4727.84
206.586	4848.53
206.661	4956.22
206.735	5031.25
206.81	5136.54
206.884	5258.74
206.958	5356.25
207.033	5480.91
207.107	5608.35
207.181	5760.24
207.256	5874.97
207.33	6008.99
207.405	6144.56
207.479	6287.43
207.553	6422.65
207.628	6530.43
207.702	6675.58
207.776	6802.61
207.851	6934.33
207.925	7087.38
207.999	7217.17
208.073	7356.93
208.148	7496.97
208.222	7623.41
208.296	7809.93
208.371	7971.08
208.445	8128.22
208.519	8300.99
208.593	8466.67
208.668	8610.61
208.742	8755.31
208.816	8904.3
208.89	9073.22
208.965	9220.08
209.039	9379.17
209.113	9555.93
209.187	9739.79
209.261	9881.18
209.336	10051.53
209.41	10227.25
209.484	10373.22
209.558	10553.49
209.632	10715.03
209.707	10879.43
209.781	11060.31
209.855	11218.28
209.929	11387.54
210.003	11545.75
210.077	11697.18
210.151	11899.08
210.226	12088.84
210.3	12274.41
210.374	12449.52
210.448	12601.5
210.522	12763.94
210.596	12919.44
210.67	13066.75
210.744	13264.2
210.818	13452.14
210.892	13620.81
210.966	13759.01
211.041	13921.99
211.115	14059.57
211.189	14227.81
211.263	14389.58
211.337	14526.58
211.411	14683.39
211.485	14818.79
211.559	14967.5
211.633	15109.85
211.707	15211.84
211.781	15346.13
211.855	15441.08
211.929	15563.95
212.003	15673.56
212.077	15818.3
212.151	15962.42
212.225	16101.86
212.299	16216.28
212.373	16321.01
212.447	16433.6
212.52	16588.6
212.594	16708.27
212.668	16844.96
212.742	16950.46
212.816	17058.94
212.89	17177.12
212.964	17289.02
213.038	17405.75
213.112	17533.94
213.186	17660.73
213.26	17755.63
213.333	17819.14
213.407	17939.14
213.481	18053.84
213.555	18177.98
213.629	18267.14
213.703	18359.08
213.777	18475.42
213.85	18550.21
213.924	18683.17
213.998	18790.05
214.072	18884.22
214.146	18972.11
214.219	19064.78
214.293	19153.16
214.367	19251.42
214.441	19365.2
214.515	19443.37
214.588	19500.91
214.662	19557.48
214.736	19629
214.81	19716.6
214.883	19807.35
214.957	19868.98
215.031	19935.24
215.105	19980.83
215.178	20039.19
215.252	20113.79
215.326	20150.18
215.4	20212.2
215.473	20235.86
215.547	20294.03
215.621	20345.98
215.694	20422.37
215.768	20466.32
215.842	20519.58
215.915	20560.16
215.989	20585.36
216.063	20647.15
216.136	20707.73
216.21	20757.56
216.284	20827.11
216.357	20884.03
216.431	20937.47
216.504	21010.2
216.578	21095.37
216.652	21171.85
216.725	21233.93
216.799	21289.75
216.873	21355.2
216.946	21420.22
217.02	21471.64
217.093	21514.4
217.167	21544.28
217.24	21585.11
217.314	21632.54
217.387	21674.08
217.461	21722.67
217.535	21785.96
217.608	21818.01
217.682	21868.82
217.755	21930.23
217.829	21958.48
217.902	22003.35
217.976	22054.21
218.049	22090.8
218.123	22110.42
218.196	22158.14
218.27	22200.42
218.343	22223.41
218.417	22259.23
218.49	22294.95
218.563	22358.69
218.637	22406.7
218.71	22471.26
218.784	22514.98
218.857	22559.63
218.931	22606
219.004	22647.51
219.077	22695
219.151	22743.84
219.224	22789.31
219.298	22827.69
219.371	22882.75
219.444	22908.59
219.518	22942.58
219.591	22981.73
219.665	23052.32
219.738	23093.69
219.811	23114.43
219.885	23164.38
219.958	23208.4
220.031	23230.63
220.105	23261.49
220.178	23289.65
220.251	23301.56
220.325	23339.9
220.398	23386.87
220.471	23428.48
220.544	23461.95
220.618	23486.21
220.691	23523.29
220.764	23551.46
220.838	23584.59
220.911	23595.2
220.984	23658.66
221.057	23702.26
221.131	23735.63
221.204	23719.43
221.277	23763.41
221.35	23834.17
221.424	23861.8
221.497	23886.26
221.57	23919.43
221.643	23954.02
221.716	23995.59
221.79	24039.92
221.863	24056.8
221.936	24070.4
222.009	24093.79
222.082	24131.94
222.155	24143.95
222.229	24174.83
222.302	24200.82
222.375	24213.27
222.448	24231.89
222.521	24230.87
222.594	24229.18
222.667	24223.88
222.74	24262.13
222.814	24267.58
222.887	24272.02
222.96	24291.12
223.033	24306.75
223.106	24328.5
223.179	24338.1
223.252	24341.19
223.325	24347.56
223.398	24358.07
223.471	24366.08
223.544	24378.67
223.617	24378.57
223.69	24389.96
223.763	24373.17
223.837	24381.08
223.91	24400.47
223.983	24405.2
224.056	24396.04
224.129	24410.02
224.202	24424.98
224.275	24419.09
224.348	24414.75
224.42	24385.85
224.493	24358.84
224.566	24362.12
224.639	24372.3
224.712	24366.95
224.785	24366.75
224.858	24347.02
224.931	24335.74
225.004	24320.49
225.077	24312.44
225.15	24272.5
225.223	24263.48
225.296	24288.66
225.369	24259.82
225.442	24246.89
225.514	24236.08
225.587	24246.12
225.66	24246.21
225.733	24238.11
225.806	24241.53
225.879	24219.3
225.952	24206.56
226.025	24217.85
226.097	24220.6
226.17	24202.95
226.243	24172.32
226.316	24151.29
226.389	24149.16
226.461	24153.65
226.534	24154.86
226.607	24142.94
226.68	24160.98
226.753	24144.05
226.825	24101.6
226.898	24111.54
226.971	24091.71
227.044	24096.29
227.117	24075.51
227.189	24066.53
227.262	24069.81
227.335	24053.56
227.407	24042.42
227.48	24044.25
227.553	24033.25
227.626	24007.54
227.698	23986.51
227.771	23987.29
227.844	23975.47
227.916	23959.07
227.989	23925.4
228.062	23904.23
228.134	23912.96
228.207	23899.7
228.28	23884.99
228.352	23873.17
228.425	23850.79
228.498	23836.76
228.57	23790.32
228.643	23796.69
228.716	23775.8
228.788	23743.49
228.861	23718.55
228.934	23725.35
229.006	23706.64
229.079	23692.8
229.151	23668.25
229.224	23646.12
229.296	23629.53
229.369	23639.17
229.442	23645.15
229.514	23626.3
229.587	23617.52
229.659	23564.14
229.732	23545.47
229.804	23538.38
229.877	23551.55
229.949	23547.4
230.022	23553.09
230.094	23547.98
230.167	23526.67
230.239	23499.18
230.312	23489.68
230.384	23496.43
230.457	23473.48
230.529	23450.76
230.602	23430.17
230.674	23415.08
230.747	23400.28
230.819	23395.98
230.892	23335.08
230.964	23308.27
231.037	23288.3
231.109	23266.99
231.181	23261.74
231.254	23230.01
231.326	23205.51
231.399	23171.76
231.471	23143.07
231.544	23103.09
231.616	23096.77
231.688	23068.23
231.761	23029.51
231.833	22998.7
231.905	22945.86
231.978	22917.36
232.05	22894.89
232.122	22872.76
232.195	22851.59
232.267	22839.64
232.339	22801.84
232.412	22802.27
232.484	22765.96
232.556	22733.57
232.629	22733.18
232.701	22720.31
232.773	22699.87
232.846	22673.54
232.918	22651.27
232.99	22627.79
233.062	22599.05
233.135	22581.46
233.207	22540.67
233.279	22531.46
233.351	22510.78
233.424	22476.94
233.496	22443.77
233.568	22434.57
233.64	22384.28
233.713	22349
233.785	22319.49
233.857	22296.01
233.929	22245.25
234.001	22244.92
234.074	22231.42
234.146	22168.85
234.218	22126.23
234.29	22096.54
234.362	22057.44
234.434	22006.97
234.507	21960.55
234.579	21917.36
234.651	21868.63
234.723	21848.81
234.795	21826.16
234.867	21792.27
234.939	21780.66
235.012	21744.65
235.084	21719.53
235.156	21701.46
235.228	21657.07
235.3	21620.19
235.372	21581.29
235.444	21569.15
235.516	21507.16
235.588	21473.61
235.66	21445.13
235.732	21419.05
235.804	21447.59
235.876	21426.62
235.948	21409.85
236.02	21375.39
236.092	21339.77
236.164	21306.03
236.236	21264.73
236.308	21221.49
236.38	21196.38
236.452	21154.84
236.524	21127.41
236.596	21105.87
236.668	21076.81
236.74	21047.7
236.812	21014.92
236.884	20996.32
236.956	20946.77
237.028	20905.04
237.1	20862.92
237.172	20849.81
237.244	20823.83
237.316	20747.24
237.388	20699.87
237.46	20656.3
237.532	20641.5
237.604	20605.6
237.675	20594.56
237.747	20575.43
237.819	20542.66
237.891	20506.18
237.963	20470.13
238.035	20426.75
238.107	20353.5
238.178	20339.14
238.25	20300.78
238.322	20288.25
238.394	20230.13
238.466	20210.42
238.538	20176.64
238.609	20141.17
238.681	20078.37
238.753	20032.83
238.825	20002.37
238.897	19975.82
238.968	19955.77
239.04	19907.49
239.112	19908.16
239.184	19852.26
239.255	19800.84
239.327	19760.84
239.399	19719.54
239.471	19691.88
239.542	19666.58
239.614	19645.47
239.686	19577.48
239.758	19553.14
239.829	19502.88
239.901	19479.7
239.973	19430.21
240.044	19399.7
240.116	19371.61
240.188	19335.42
240.259	19294.7
240.331	19243.52
240.403	19210.65
240.474	19155.38
240.546	19111.19
240.618	19048.64
240.689	19006.09
240.761	18974.81
240.833	18954.57
240.904	18913.37
240.976	18872.31
241.048	18837.95
241.119	18803.69
241.191	18774.1
241.262	18761.24
241.334	18712.9
241.405	18672.28
241.477	18627.89
241.549	18591.9
241.62	18551.18
241.692	18525.97
241.763	18506.6
241.835	18479.03
241.906	18444.15
241.978	18392.82
242.049	18375.38
242.121	18347.72
242.192	18335.33
242.264	18289.26
242.335	18225.22
242.407	18201.31
242.478	18152.3
242.55	18117.27
242.621	18067.29
242.693	18023.05
242.764	17976.07
242.836	17945.13
242.907	17913.28
242.979	17889.66
243.05	17860.55
243.122	17844.7
243.193	17810.97
243.264	17747.79
243.336	17701.47
243.407	17671.55
243.479	17656.08
243.55	17618.58
243.622	17591.21
243.693	17548.75
243.764	17536.27
243.836	17497.67
243.907	17458.15
243.978	17424.8
244.05	17390.05
244.121	17344.22
244.192	17321.48
244.264	17269.38
244.335	17236.99
244.407	17188.99
244.478	17160.51
244.549	17113.09
244.62	17051.93
244.692	17008.84
244.763	16985.13
244.834	16945.76
244.906	16901.18
244.977	16866.04
245.048	16843.58
245.119	16793.17
245.191	16744.35
245.262	16677.79
245.333	16667.48
245.405	16626.99
245.476	16600.53
245.547	16569.16
245.618	16544.48
245.689	16514.17
245.761	16483.75
245.832	16442.64
245.903	16420.57
245.974	16387.26
246.045	16357
246.117	16345.33
246.188	16296.94
246.259	16254.38
246.33	16223.34
246.401	16184.88
246.473	16135.72
246.544	16100.15
246.615	16071.09
246.686	16034.31
246.757	16019.8
246.828	15973.92
246.899	15957.58
246.97	15909.47
247.042	15871.78
247.113	15847.2
247.184	15835.54
247.255	15790.57
247.326	15758.37
247.397	15720.15
247.468	15691.56
247.539	15658.5
247.61	15612.13
247.681	15605.81
247.752	15579.98
247.823	15531.01
247.894	15509.7
247.965	15478.47
248.037	15442.22
248.108	15401.63
248.179	15373.68
248.25	15346.68
248.321	15313.76
248.392	15276.12
248.463	15274.14
248.534	15243.77
248.605	15229.07
248.675	15191.81
248.746	15179.14
248.817	15159.9
248.888	15131.13
248.959	15080.61
249.03	15063.69
249.101	15035.01
249.172	14994.9
249.243	14952.39
249.314	14943.95
249.385	14919.85
249.456	14892.32
249.527	14857.81
249.598	14835.4
249.669	14810.86
249.739	14774.9
249.81	14754.8
249.881	14709.44
249.952	14682.11
250.023	14646.24
250.094	14590.08
250.165	14549.83
250.235	14519.51
250.306	14494.16
250.377	14461.76
250.448	14444.27
250.519	14390.23
250.59	14382.52
250.66	14349.64
250.731	14341.4
250.802	14315.56
250.873	14285.86
250.944	14267.11
251.014	14229.27
251.085	14232.84
251.156	14210.32
251.227	14208.25
251.297	14206.47
251.368	14193.79
251.439	14172.53
251.51	14171.28
251.58	14138.5
251.651	14109.53
251.722	14094.24
251.792	14047.29
251.863	14022.71
251.934	14007.04
252.005	14011.72
252.075	13977.78
252.146	13968.23
252.217	13953.34
252.287	13939.31
252.358	13912.41
252.429	13913.57
252.499	13891.1
252.57	13868.98
252.641	13859.58
252.711	13834.41
252.782	13788.86
252.852	13786.88
252.923	13760.75
252.994	13730.77
253.064	13720.55
253.135	13682.08
253.205	13644.77
253.276	13636.24
253.347	13633.59
253.417	13603.31
253.488	13571.88
253.558	13550.86
253.629	13523.1
253.699	13505.11
253.77	13485.59
253.841	13459.56
253.911	13435.75
253.982	13413.09
254.052	13393.03
254.123	13364.4
254.193	13340.78
254.264	13361.84
254.334	13319.04
254.405	13279.31
254.475	13248.94
254.546	13230.77
254.616	13228.75
254.687	13220.17
254.757	13207.15
254.827	13179.53
254.898	13157.64
254.968	13141.01
255.039	13110.74
255.109	13096.76
255.18	13062.39
255.25	13017.07
255.321	13007.34
255.391	12966.55
255.461	12968.58
255.532	12924.57
255.602	12903.69
255.673	12848.74
255.743	12806.61
255.813	12768.14
255.884	12759.17
255.954	12744.52
256.024	12747.46
256.095	12728.13
256.165	12688.31
256.235	12675.15
256.306	12642.9
256.376	12642.27
256.446	12636.25
256.517	12620.49
256.587	12611.95
256.657	12597.73
256.728	12581.68
256.798	12558.69
256.868	12537.86
256.938	12508.07
257.009	12495.73
257.079	12483.58
257.149	12502.34
257.219	12462.95
257.29	12447.38
257.36	12412.82
257.43	12400.77
257.5	12354.16
257.571	12327.36
257.641	12321.72
257.711	12287.73
257.781	12278.48
257.852	12258.86
257.922	12211.62
257.992	12196.39
258.062	12174.6
258.132	12166.98
258.202	12150.45
258.273	12135.8
258.343	12135.56
258.413	12105.33
258.483	12085.43
258.553	12051.06
258.623	12022.86
258.693	12017.51
258.764	12020.5
258.834	12020.45
258.904	12004.35
258.974	11973.16
259.044	11949.26
259.114	11936
259.184	11916.63
259.254	11898.26
259.324	11851.31
259.394	11841.63
259.464	11836.52
259.535	11811.6
259.605	11782.87
259.675	11755.59
259.745	11741.37
259.815	11709.9
259.885	11689.36
259.955	11700.02
260.025	11674.96
260.095	11654.28
260.165	11634.28
260.235	11632.4
260.305	11605.55
260.375	11572.2
260.445	11583.96
260.515	11588.68
260.585	11584.97
260.655	11570.75
260.725	11563.04
260.795	11564.72
260.865	11564.68
260.934	11533.25
261.004	11529.01
261.074	11513.59
261.144	11519.85
261.214	11521.11
261.284	11505.06
261.354	11501.92
261.424	11472.52
261.494	11478.11
261.564	11457.15
261.634	11451.46
261.703	11410.69
261.773	11401.1
261.843	11395.31
261.913	11382.49
