Data from 20250703_urea_0.1M_MAYP1162681_06-41-05-117.txt Node
Date: Fri Jul 04 06:41:05 BST 2025
User: adleo
Spectrometer: MAYP116268
Trigger mode: 0
Integration Time (sec): 1.000000E0
Scans to average: 1
Electric dark correction enabled: true
Nonlinearity correction enabled: true
Boxcar width: 10
XAxis mode: Wavelengths
Number of Pixels in Spectrum: 2068
>>>>>Begin Spectral Data<<<<<
179.565	1255.94
179.642	1311.36
179.718	1362.09
179.795	1405
179.871	1439.27
179.948	1456.15
180.024	1478.85
180.101	1502.53
180.177	1518.56
180.254	1542.27
180.33	1565.92
180.407	1623.23
180.483	1721.95
180.56	1815.08
180.636	1904.15
180.712	1890.26
180.789	1898.01
180.865	1908.47
180.942	1917.54
181.018	1927.72
181.095	1938.66
181.171	1944.6
181.248	1946.64
181.324	1960.91
181.4	1968.9
181.477	1979.79
181.553	1997
181.63	2017.64
181.706	2033.62
181.782	2040.9
181.859	2041.75
181.935	2043.18
182.011	2039.76
182.088	2056.88
182.164	2079.29
182.24	2093.13
182.317	2104.73
182.393	2105.02
182.469	2119.1
182.546	2136.17
182.622	2139.07
182.698	2135.74
182.775	2146.68
182.851	2163.24
182.927	2154.72
183.003	2148.3
183.08	2143.21
183.156	2148.92
183.232	2145.35
183.308	2135.22
183.385	2142.5
183.461	2160.81
183.537	2164.05
183.613	2178.75
183.69	2169.76
183.766	2157
183.842	2164.71
183.918	2168.94
183.995	2183.83
184.071	2188.59
184.147	2182.83
184.223	2173.32
184.299	2187.17
184.375	2178.56
184.452	2184.84
184.528	2235.33
184.604	2246.47
184.68	2258.36
184.756	2267.02
184.832	2273.21
184.908	2275.54
184.985	2278.2
185.061	2258.5
185.137	2269.4
185.213	2255.51
185.289	2256.94
185.365	2250.28
185.441	2247.71
185.517	2260.89
185.593	2256.8
185.669	2253.04
185.745	2259.46
185.822	2276.06
185.898	2266.5
185.974	2276.96
186.05	2268.2
186.126	2233.85
186.202	2224.81
186.278	2222.33
186.354	2212.44
186.43	2218.96
186.506	2218.05
186.582	2214.25
186.658	2222.86
186.734	2204.11
186.81	2207.2
186.886	2209.06
186.962	2219.19
187.038	2214.15
187.114	2205.67
187.19	2212.24
187.266	2204.39
187.341	2208.58
187.417	2204.06
187.493	2201.35
187.569	2200.11
187.645	2192.07
187.721	2177.18
187.797	2186.64
187.873	2189.21
187.949	2186.6
188.025	2180.5
188.101	2185.5
188.176	2189.97
188.252	2184.64
188.328	2190.11
188.404	2190.68
188.48	2187.88
188.556	2184.45
188.632	2185.73
188.707	2187.73
188.783	2183.16
188.859	2177.51
188.935	2163.28
189.011	2167.65
189.086	2165.61
189.162	2158.14
189.238	2157.57
189.314	2155.81
189.39	2149.58
189.465	2142.54
189.541	2156.38
189.617	2136.93
189.693	2131.74
189.768	2137.26
189.844	2164.92
189.92	2155.69
189.996	2164.87
190.071	2175.1
190.147	2173.91
190.223	2181.19
190.298	2172.96
190.374	2159.17
190.45	2171.44
190.526	2184.47
190.601	2181.91
190.677	2183.86
190.753	2213.85
190.828	2214.75
190.904	2231.6
190.98	2246.54
191.055	2257.05
191.131	2247.39
191.207	2269.37
191.282	2278.08
191.358	2271.42
191.433	2255.75
191.509	2271.21
191.585	2268.83
191.66	2269.83
191.736	2278.68
191.811	2270.35
191.887	2286.49
191.963	2313.85
192.038	2318.37
192.114	2315.9
192.189	2320.89
192.265	2315.42
192.34	2291.86
192.416	2295.57
192.491	2290.23
192.567	2294.66
192.642	2297.66
192.718	2298.14
192.793	2284.86
192.869	2281.05
192.944	2281.63
193.02	2287.62
193.095	2292.05
193.171	2295.33
193.246	2293.95
193.322	2290.19
193.397	2288.72
193.473	2275.96
193.548	2256.97
193.624	2262.54
193.699	2263.01
193.775	2276.63
193.85	2277.82
193.925	2286.96
194.001	2283.25
194.076	2275.92
194.152	2264.97
194.227	2253.88
194.302	2245.13
194.378	2255.74
194.453	2254.41
194.529	2268.83
194.604	2254.12
194.679	2245.22
194.755	2229.1
194.83	2240.62
194.905	2237.76
194.981	2247.61
195.056	2239.48
195.131	2245.76
195.207	2242.04
195.282	2228.72
195.357	2210.59
195.433	2224.43
195.508	2213.91
195.583	2221.86
195.659	2236.71
195.734	2241.75
195.809	2244.7
195.884	2253.46
195.96	2252.41
196.035	2267.64
196.11	2259.74
196.185	2272.06
196.261	2277.39
196.336	2310.32
196.411	2296.71
196.486	2301.94
196.561	2295.14
196.637	2304.61
196.712	2321.03
196.787	2326.94
196.862	2343.73
196.937	2353.35
197.013	2361.53
197.088	2371.96
197.163	2396.19
197.238	2415.3
197.313	2417.39
197.388	2430.91
197.464	2461.87
197.539	2468.96
197.614	2460.92
197.689	2476.58
197.764	2492.58
197.839	2515.39
197.914	2505.24
197.989	2528.91
198.065	2542.05
198.14	2596.18
198.215	2622.57
198.29	2634.1
198.365	2647.1
198.44	2661.86
198.515	2692.69
198.59	2711.32
198.665	2735.99
198.74	2743.19
198.815	2743.38
198.89	2765.25
198.965	2796.27
199.04	2792.46
199.115	2809.32
199.19	2853.21
199.265	2852.45
199.34	2864.17
199.415	2896.74
199.49	2921.32
199.565	2932.38
199.64	2956.26
199.715	2954.73
199.79	2962.79
199.865	2970.18
199.94	2973.37
200.015	3005.61
200.09	3006.89
200.165	3013.57
200.24	3023.25
200.315	3064.76
200.39	3080.36
200.464	3089.99
200.539	3094.14
200.614	3112.21
200.689	3138.15
200.764	3146.02
200.839	3170.43
200.914	3175.91
200.989	3165.61
201.063	3181.15
201.138	3164.05
201.213	3165.33
201.288	3144.68
201.363	3149.88
201.438	3148.79
201.512	3161.56
201.587	3143.01
201.662	3147.01
201.737	3157.89
201.812	3165.33
201.886	3131.25
201.961	3143.61
202.036	3131.07
202.111	3126.01
202.186	3094.27
202.26	3077.53
202.335	3055.69
202.41	3048.44
202.485	3032.04
202.559	3013.02
202.634	2985.46
202.709	2995.51
202.784	2981.4
202.858	2985.02
202.933	2969.24
203.008	2968.19
203.082	2949.51
203.157	2949.6
203.232	2911.91
203.306	2893.79
203.381	2868.09
203.456	2851.03
203.53	2832.61
203.605	2816.98
203.68	2797.96
203.754	2802.1
203.829	2796.1
203.904	2783.76
203.978	2781.09
204.053	2796.58
204.127	2795.53
204.202	2807.16
204.277	2805.01
204.351	2808.35
204.426	2814.31
204.5	2821.89
204.575	2801.54
204.65	2830.53
204.724	2844.08
204.799	2871.37
204.873	2891.07
204.948	2913.95
205.022	2929.06
205.097	2949.96
205.171	2995.63
205.246	3033.32
205.32	3063.54
205.395	3095.07
205.469	3121.38
205.544	3164.81
205.618	3187.24
205.693	3241.68
205.767	3273.13
205.842	3334.99
205.916	3378.08
205.991	3413.35
206.065	3464.86
206.14	3531.89
206.214	3580.18
206.289	3627.71
206.363	3697.44
206.438	3759.94
206.512	3826.74
206.586	3903.9
206.661	3970.79
206.735	4011.5
206.81	4080.94
206.884	4163.25
206.958	4218.95
207.033	4309.25
207.107	4388.8
207.181	4491.44
207.256	4564.95
207.33	4656.54
207.405	4748.98
207.479	4852.35
207.553	4942.82
207.628	5014.33
207.702	5111.69
207.776	5191.4
207.851	5278.79
207.925	5381.02
207.999	5466.01
208.073	5551.67
208.148	5651.26
208.222	5728.66
208.296	5856.96
208.371	5965.17
208.445	6068.12
208.519	6193
208.593	6294.88
208.668	6385.47
208.742	6485.55
208.816	6578.1
208.89	6689.33
208.965	6782.77
209.039	6882.56
209.113	7001.41
209.187	7119.17
209.261	7212.47
209.336	7337.8
209.41	7461.19
209.484	7564.75
209.558	7685.33
209.632	7801.63
209.707	7912.2
209.781	8039.44
209.855	8151.72
209.929	8274.58
210.003	8386.34
210.077	8483.96
210.151	8633.5
210.226	8771.1
210.3	8894.97
210.374	9014.71
210.448	9120.08
210.522	9230.18
210.596	9336.87
210.67	9438.61
210.744	9588.42
210.818	9720.54
210.892	9838.16
210.966	9928.65
211.041	10044.78
211.115	10138.18
211.189	10251.47
211.263	10365.94
211.337	10465.03
211.411	10571.65
211.485	10658.82
211.559	10761.2
211.633	10857.9
211.707	10929.46
211.781	11027.58
211.855	11095.39
211.929	11188.58
212.003	11262.74
212.077	11369.88
212.151	11481.84
212.225	11585.36
212.299	11657.61
212.373	11731.69
212.447	11808.23
212.52	11925.06
212.594	12008.5
212.668	12103.55
212.742	12179.08
212.816	12249.4
212.89	12322.53
212.964	12408.42
213.038	12498.23
213.112	12599.07
213.186	12703.92
213.26	12754.58
213.333	12779.31
213.407	12860.05
213.481	12934
213.555	13028.23
213.629	13089.07
213.703	13143.98
213.777	13221.69
213.85	13285.9
213.924	13402.7
213.998	13482.29
214.072	13551.95
214.146	13614.13
214.219	13689.38
214.293	13767.96
214.367	13843.35
214.441	13929.21
214.515	13988.69
214.588	14030.92
214.662	14060.71
214.736	14104.05
214.81	14182.87
214.883	14272.68
214.957	14331.54
215.031	14394.64
215.105	14436.05
215.178	14489.8
215.252	14550.82
215.326	14582.83
215.4	14618.6
215.473	14629.2
215.547	14667.19
215.621	14709.37
215.694	14778.01
215.768	14814.5
215.842	14845.83
215.915	14892.64
215.989	14922.33
216.063	14970.63
216.136	15025.87
216.21	15086.75
216.284	15152.06
216.357	15205.95
216.431	15249.43
216.504	15306.07
216.578	15371.67
216.652	15435.73
216.725	15490.39
216.799	15545.1
216.873	15608.2
216.946	15673.75
217.02	15715.59
217.093	15769.67
217.167	15800.95
217.24	15829.58
217.314	15868.96
217.387	15921.55
217.461	15958.57
217.535	16029.27
217.608	16066.87
217.682	16116.7
217.755	16169.96
217.829	16203.22
217.902	16251.13
217.976	16296.1
218.049	16335.28
218.123	16371.91
218.196	16421.31
218.27	16462.76
218.343	16494.04
218.417	16533.08
218.49	16575.59
218.563	16647.02
218.637	16691.45
218.71	16761.58
218.784	16815.99
218.857	16884.62
218.931	16930.07
219.004	16983.42
219.077	17032
219.151	17084.92
219.224	17122.03
219.298	17173.45
219.371	17239.18
219.444	17280.97
219.518	17333.02
219.591	17379.38
219.665	17451.43
219.738	17501.98
219.811	17535.33
219.885	17591.96
219.958	17654.94
220.031	17701.26
220.105	17749.83
220.178	17797.69
220.251	17831.23
220.325	17885.3
220.398	17934.36
220.471	17990.16
220.544	18043.95
220.618	18080.47
220.691	18126.4
220.764	18186.06
220.838	18229.62
220.911	18258.49
220.984	18321.81
221.057	18375.11
221.131	18418.58
221.204	18428.99
221.277	18492.26
221.35	18567.1
221.424	18609.41
221.497	18650.71
221.57	18693.46
221.643	18738.95
221.716	18792.53
221.79	18833.01
221.863	18870.02
221.936	18894.41
222.009	18923.13
222.082	18964.28
222.155	18997.53
222.229	19047.02
222.302	19081.34
222.375	19109.43
222.448	19164.32
222.521	19197.81
222.594	19224.56
222.667	19247.25
222.74	19291.78
222.814	19320.69
222.887	19353.22
222.96	19395.49
223.033	19431.05
223.106	19458.23
223.179	19492.06
223.252	19518.95
223.325	19555.67
223.398	19578.75
223.471	19620.15
223.544	19656.82
223.617	19689.88
223.69	19722.5
223.763	19734.5
223.837	19768.38
223.91	19805.3
223.983	19810.55
224.056	19820.48
224.129	19853.73
224.202	19897.19
224.275	19911.8
224.348	19915.55
224.42	19920.52
224.493	19917.63
224.566	19934.45
224.639	19964.76
224.712	19968.28
224.785	19984.76
224.858	19986.49
224.931	19997.96
225.004	20001.24
225.077	20024.42
225.15	20011.55
225.223	20025.53
225.296	20070.83
225.369	20061.67
225.442	20071.74
225.514	20084.32
225.587	20105.19
225.66	20130.1
225.733	20146.78
225.806	20174.63
225.879	20192.75
225.952	20192.51
226.025	20226.87
226.097	20252.03
226.17	20267.21
226.243	20262.68
226.316	20282.97
226.389	20304.56
226.461	20329.52
226.534	20353.28
226.607	20351.5
226.68	20389.96
226.753	20405.04
226.825	20395.16
226.898	20423.59
226.971	20434.15
227.044	20455.45
227.117	20467.88
227.189	20476.94
227.262	20492.75
227.335	20501.28
227.407	20506.63
227.48	20525.57
227.553	20529.09
227.626	20537.76
227.698	20536.03
227.771	20555.06
227.844	20535.06
227.916	20549.47
227.989	20541.91
228.062	20543.21
228.134	20575.74
228.207	20575.16
228.28	20574.82
228.352	20566.82
228.425	20567.45
228.498	20576.46
228.57	20570.34
228.643	20591.69
228.716	20587.5
228.788	20576.99
228.861	20571.21
228.934	20584.8
229.006	20580.56
229.079	20587.98
229.151	20580.7
229.224	20577.09
229.296	20583.64
229.369	20612.75
229.442	20631.79
229.514	20624.99
229.587	20630.15
229.659	20607.16
229.732	20605.72
229.804	20619.5
229.877	20653.33
229.949	20672.22
230.022	20687.55
230.094	20686.01
230.167	20684.85
230.239	20674.25
230.312	20677.09
230.384	20704.66
230.457	20712.23
230.529	20726.2
230.602	20723.26
230.674	20728.23
230.747	20741.33
230.819	20758.88
230.892	20726.01
230.964	20718.88
231.037	20721.86
231.109	20723.21
231.181	20731.6
231.254	20725.14
231.326	20709.24
231.399	20693.82
231.471	20673.14
231.544	20649.91
231.616	20658.73
231.688	20642.2
231.761	20633.33
231.833	20619.98
231.905	20574.92
231.978	20565.33
232.05	20550.63
232.122	20538.39
232.195	20507.35
232.267	20502.29
232.339	20480.75
232.412	20492.27
232.484	20476.8
232.556	20465.04
232.629	20470.1
232.701	20470
232.773	20461.86
232.846	20450.82
232.918	20434.68
232.99	20432.17
233.062	20429.14
233.135	20419.06
233.207	20400.85
233.279	20394.1
233.351	20391.83
233.424	20388.61
233.496	20354.73
233.568	20360.27
233.64	20336.56
233.713	20329.81
233.785	20316.94
233.857	20300.12
233.929	20274.34
234.001	20278.87
234.074	20275.59
234.146	20233.62
234.218	20214.63
234.29	20190.1
234.362	20166.68
234.434	20138.78
234.507	20102.59
234.579	20064.56
234.651	20040.18
234.723	20020.23
234.795	20013.29
234.867	19983.46
234.939	19979.89
235.012	19968.37
235.084	19956.04
235.156	19953.53
235.228	19933.87
235.3	19907.36
235.372	19896.18
235.444	19886.64
235.516	19828.23
235.588	19815.94
235.66	19796.24
235.732	19758.45
235.804	19795.08
235.876	19783.71
235.948	19786.5
236.02	19774.69
236.092	19746.79
236.164	19723.52
236.236	19697.11
236.308	19666.94
236.38	19656.34
236.452	19617.59
236.524	19590.9
236.596	19576.68
236.668	19553.31
236.74	19525.07
236.812	19504.01
236.884	19479.53
236.956	19461.03
237.028	19428.88
237.1	19391.92
237.172	19391.92
237.244	19385.8
237.316	19321.95
237.388	19286.58
237.46	19239.21
237.532	19219.21
237.604	19198.87
237.675	19186.82
237.747	19172.94
237.819	19137.33
237.891	19102.49
237.963	19066.64
238.035	19039.94
238.107	18974.16
238.178	18957.49
238.25	18924.62
238.322	18914.79
238.394	18870.99
238.466	18832.82
238.538	18816.87
238.609	18792.92
238.681	18737.12
238.753	18700.88
238.825	18676.73
238.897	18653.7
238.968	18652.83
239.04	18613.46
239.112	18613.22
239.184	18567.15
239.255	18529.18
239.327	18498.82
239.399	18470.38
239.471	18457.95
239.542	18431.69
239.614	18418.15
239.686	18359.93
239.758	18353.67
239.829	18307.41
239.901	18289.53
239.973	18265.48
240.044	18234.3
240.116	18208.23
240.188	18183.99
240.259	18148.28
240.331	18099.03
240.403	18068.96
240.474	18009.64
240.546	17976.05
240.618	17911.47
240.689	17875.62
240.761	17841.4
240.833	17835.33
240.904	17802.12
240.976	17767.86
241.048	17742.65
241.119	17722.51
241.191	17695.57
241.262	17672.63
241.334	17643.19
241.405	17603.04
241.477	17559.09
241.549	17529.65
241.62	17492.68
241.692	17461.16
241.763	17442.37
241.835	17420.68
241.906	17393.41
241.978	17349.55
242.049	17328.97
242.121	17315.04
242.192	17297.89
242.264	17258.46
242.335	17195.47
242.407	17174.08
242.478	17136.15
242.55	17106.17
242.621	17065.93
242.693	17039.37
242.764	16991.47
242.836	16951.18
242.907	16926.7
242.979	16904.62
243.05	16876.43
243.122	16846.84
243.193	16817.82
243.264	16754.64
243.336	16717.29
243.407	16684.42
243.479	16671.36
243.55	16646.63
243.622	16619.4
243.693	16582.15
243.764	16571.16
243.836	16535.3
243.907	16500.02
243.978	16458.47
244.05	16425.75
244.121	16365.26
244.192	16334.37
244.264	16287.76
244.335	16252.72
244.407	16204.52
244.478	16175.75
244.549	16137.43
244.62	16089.66
244.692	16057.66
244.763	16037.75
244.834	16003.1
244.906	15972.35
244.977	15944.11
245.048	15919.14
245.119	15874.31
245.191	15834.5
245.262	15779.26
245.333	15763.89
245.405	15732.94
245.476	15717.13
245.547	15687.11
245.618	15670.38
245.689	15643.53
245.761	15619.91
245.832	15586.75
245.903	15562.07
245.974	15528.48
246.045	15496.38
246.117	15495.17
246.188	15444.08
246.259	15405.18
246.33	15373.32
246.401	15334.71
246.473	15282.21
246.544	15244.42
246.615	15227.36
246.686	15199.5
246.757	15180.36
246.828	15136.64
246.899	15119.1
246.97	15071.62
247.042	15032.96
247.113	15011.17
247.184	14999.89
247.255	14960.89
247.326	14938.53
247.397	14904.54
247.468	14883.09
247.539	14861.74
247.61	14803.12
247.681	14792.52
247.752	14783.22
247.823	14743.54
247.894	14711.87
247.965	14686.52
248.037	14651.47
248.108	14605.58
248.179	14567.79
248.25	14537.61
248.321	14525.27
248.392	14477.65
248.463	14474.08
248.534	14443.95
248.605	14420.04
248.675	14383.65
248.746	14365.28
248.817	14346.58
248.888	14324.36
248.959	14269.4
249.03	14245.11
249.101	14221.87
249.172	14181.28
249.243	14132.01
249.314	14119.48
249.385	14095.18
249.456	14070.26
249.527	14030.01
249.598	14004.46
249.669	13983.88
249.739	13961.51
249.81	13934.18
249.881	13896.19
249.952	13861.91
250.023	13831.35
250.094	13792.11
250.165	13756.44
250.235	13730.5
250.306	13700.33
250.377	13660.99
250.448	13654.43
250.519	13607.24
250.59	13601.84
250.66	13576.44
250.731	13568.72
250.802	13549.73
250.873	13540.09
250.944	13519.5
251.014	13495.98
251.085	13497.23
251.156	13474
251.227	13460.64
251.297	13443.92
251.368	13436.69
251.439	13425.02
251.51	13417.31
251.58	13376.86
251.651	13343.12
251.722	13330.68
251.792	13288.4
251.863	13269.17
251.934	13255.24
252.005	13254.32
252.075	13227.18
252.146	13209.25
252.217	13193.87
252.287	13175.65
252.358	13142.1
252.429	13135.68
252.499	13100.4
252.57	13076.15
252.641	13064.24
252.711	13036.57
252.782	12998.1
252.852	12997.28
252.923	12970.48
252.994	12949.56
253.064	12950.57
253.135	12920.97
253.205	12887.42
253.276	12888.29
253.347	12887.42
253.417	12850.4
253.488	12822.88
253.558	12797.09
253.629	12779.01
253.699	12765.7
253.77	12748.4
253.841	12724.83
253.911	12700.43
253.982	12688.91
254.052	12677.34
254.123	12654.06
254.193	12635.21
254.264	12652.52
254.334	12618.53
254.405	12583.3
254.475	12552.44
254.546	12521.69
254.616	12519.95
254.687	12510.65
254.757	12494.79
254.827	12464.66
254.898	12444.95
254.968	12435.98
255.039	12409.37
255.109	12402.39
255.18	12368.93
255.25	12327.52
255.321	12316.87
255.391	12284.38
255.461	12291.47
255.532	12239.99
255.602	12219.74
255.673	12181.18
255.743	12143.48
255.813	12097.93
255.884	12091.72
255.954	12072.29
256.024	12076.1
256.095	12054.55
256.165	12019.08
256.235	11997.58
256.306	11970.73
256.376	11969.67
256.446	11949.09
256.517	11939.83
256.587	11926.63
256.657	11906.48
256.728	11890.19
256.798	11866.81
256.868	11850.32
256.938	11822.66
257.009	11811.76
257.079	11801.35
257.149	11810.37
257.219	11776.67
257.29	11764.58
257.36	11722.31
257.43	11716.04
257.5	11668.62
257.571	11640.18
257.641	11624.03
257.711	11587.84
257.781	11580.66
257.852	11563.74
257.922	11528.07
257.992	11502.86
258.062	11480.98
258.132	11472.88
258.202	11451.44
258.273	11437.89
258.343	11437.36
258.413	11404.45
258.483	11394.42
258.553	11362.85
258.623	11331.67
258.693	11316.01
258.764	11313.98
258.834	11317.4
258.904	11296.29
258.974	11274.51
259.044	11257.6
259.114	11246.18
259.184	11237.98
259.254	11219.53
259.324	11179.91
259.394	11166.9
259.464	11170.32
259.535	11148.15
259.605	11127.09
259.675	11099.91
259.745	11078.47
259.815	11050.42
259.885	11033.46
259.955	11043.38
260.025	11016.4
260.095	11005.94
260.165	11005.8
260.235	11006.04
260.305	10982.62
260.375	10959.73
260.445	10967.39
260.515	10968.93
260.585	10961.8
260.655	10944.31
260.725	10934.67
260.795	10923.25
260.865	10928.16
260.934	10896.02
261.004	10889.32
261.074	10870.29
261.144	10871.93
261.214	10870.43
261.284	10846.24
261.354	10835.26
261.424	10797.14
261.494	10803.88
261.564	10785.43
261.634	10766.25
261.703	10731.84
261.773	10722.21
261.843	10711.56
261.913	10695.03
