Data from 20250703_urea_0.1M_MAYP1162681_20-31-05-008.txt Node
Date: Thu Jul 03 20:31:05 BST 2025
User: adleo
Spectrometer: MAYP116268
Trigger mode: 0
Integration Time (sec): 1.000000E0
Scans to average: 1
Electric dark correction enabled: true
Nonlinearity correction enabled: true
Boxcar width: 10
XAxis mode: Wavelengths
Number of Pixels in Spectrum: 2068
>>>>>Begin Spectral Data<<<<<
179.565	1386.66
179.642	1453.4
179.718	1499.97
179.795	1542.81
179.871	1583.46
179.948	1604.25
180.024	1627.05
180.101	1650.92
180.177	1669.39
180.254	1696.95
180.33	1721.17
180.407	1789.62
180.483	1896.23
180.56	1999.01
180.636	2097.02
180.712	2082.13
180.789	2094.97
180.865	2108.43
180.942	2118.28
181.018	2127.93
181.095	2144.87
181.171	2151.53
181.248	2152.06
181.324	2170.95
181.4	2180.47
181.477	2190.7
181.553	2205.11
181.63	2230.04
181.706	2248.46
181.782	2258.4
181.859	2257.49
181.935	2264.35
182.011	2258.83
182.088	2282.39
182.164	2305.29
182.24	2318.7
182.317	2329.93
182.393	2324.41
182.469	2339.17
182.546	2353.78
182.622	2362.44
182.698	2356.39
182.775	2366.29
182.851	2381.48
182.927	2375.86
183.003	2371.91
183.08	2364.82
183.156	2375.77
183.232	2370.82
183.308	2359.77
183.385	2368.25
183.461	2388.14
183.537	2389.19
183.613	2406.38
183.69	2394.38
183.766	2382.19
183.842	2390.04
183.918	2395.57
183.995	2414.46
184.071	2418.99
184.147	2413.61
184.223	2397.33
184.299	2412.14
184.375	2402.38
184.452	2408.19
184.528	2457.71
184.604	2468.28
184.68	2481.94
184.756	2489.85
184.832	2496.75
184.908	2502.84
184.985	2502.41
185.061	2482.18
185.137	2491.99
185.213	2478.18
185.289	2479.04
185.365	2473.28
185.441	2473.66
185.517	2489.43
185.593	2486.33
185.669	2483.85
185.745	2496.81
185.822	2515.03
185.898	2504.41
185.974	2515.74
186.05	2508.27
186.126	2473.51
186.202	2467.13
186.278	2464.13
186.354	2454.84
186.43	2461.13
186.506	2459.65
186.582	2459.51
186.658	2467.03
186.734	2445.71
186.81	2449.23
186.886	2453.66
186.962	2468.37
187.038	2464.8
187.114	2455.84
187.19	2462.27
187.266	2450.46
187.341	2450.99
187.417	2443.51
187.493	2445.75
187.569	2447.23
187.645	2441.71
187.721	2429.23
187.797	2437.8
187.873	2442.46
187.949	2436.8
188.025	2427.61
188.101	2431.03
188.176	2435.18
188.252	2429.23
188.328	2438.08
188.404	2436.22
188.48	2432.27
188.556	2421.51
188.632	2419.22
188.707	2418.32
188.783	2413.46
188.859	2406.18
188.935	2391.42
189.011	2399.47
189.086	2389.8
189.162	2381.76
189.238	2376.38
189.314	2375.05
189.39	2366.24
189.465	2357.67
189.541	2376.29
189.617	2362.01
189.693	2355.16
189.768	2358.68
189.844	2387.82
189.92	2377.59
189.996	2387.83
190.071	2397.92
190.147	2396.97
190.223	2408.54
190.298	2403.69
190.374	2389.36
190.45	2404.39
190.526	2415.11
190.601	2408.3
190.677	2411.73
190.753	2440.21
190.828	2448.64
190.904	2463.45
190.98	2483.26
191.055	2495.64
191.131	2484.97
191.207	2507.25
191.282	2519.72
191.358	2509.96
191.433	2494.62
191.509	2512.18
191.585	2508.13
191.66	2512.85
191.736	2522.42
191.811	2513.04
191.887	2530.47
191.963	2559.33
192.038	2567.62
192.114	2566.04
192.189	2572.52
192.265	2566.71
192.34	2541.89
192.416	2538.99
192.491	2533.51
192.567	2534.32
192.642	2535.42
192.718	2535.08
192.793	2521.61
192.869	2516.23
192.944	2516.94
193.02	2525.99
193.095	2528.75
193.171	2533.66
193.246	2530.18
193.322	2527.37
193.397	2528.32
193.473	2512.98
193.548	2491.17
193.624	2496.41
193.699	2498.17
193.775	2516.22
193.85	2518.41
193.925	2529.22
194.001	2527.8
194.076	2523.65
194.152	2512.36
194.227	2507.36
194.302	2497.13
194.378	2502.46
194.453	2498.61
194.529	2513.32
194.604	2499.27
194.679	2495.32
194.755	2476.23
194.83	2490.19
194.905	2485.91
194.981	2495.48
195.056	2482.2
195.131	2488.24
195.207	2486.82
195.282	2477.39
195.357	2455.71
195.433	2476.14
195.508	2463.33
195.583	2472.95
195.659	2486.81
195.734	2498.34
195.809	2496.67
195.884	2506.38
195.96	2504.9
196.035	2524.9
196.11	2518.95
196.185	2529.62
196.261	2530.76
196.336	2567.71
196.411	2551.9
196.486	2560.75
196.561	2555.37
196.637	2568.84
196.712	2585.52
196.787	2585.56
196.862	2600.61
196.937	2611.52
197.013	2615.52
197.088	2625.99
197.163	2652.01
197.238	2673.85
197.313	2669.32
197.388	2681.19
197.464	2712.59
197.539	2725.97
197.614	2716.35
197.689	2734.65
197.764	2752.9
197.839	2777.06
197.914	2766.9
197.989	2790.44
198.065	2806.26
198.14	2860.78
198.215	2888.08
198.29	2902.01
198.365	2919.45
198.44	2929.84
198.515	2961.97
198.59	2982.33
198.665	3016.61
198.74	3023.33
198.815	3020.95
198.89	3048.07
198.965	3084.42
199.04	3081.89
199.115	3099.77
199.19	3145.63
199.265	3143.92
199.34	3155.55
199.415	3190.15
199.49	3217.9
199.565	3229.68
199.64	3255.73
199.715	3251
199.79	3263.79
199.865	3268.41
199.94	3265.07
200.015	3301.86
200.09	3306.2
200.165	3313.6
200.24	3318.23
200.315	3360.06
200.39	3376.95
200.464	3380.34
200.539	3381.49
200.614	3399.19
200.689	3426.92
200.764	3437.52
200.839	3460.36
200.914	3466.14
200.989	3456.2
201.063	3471.72
201.138	3452.88
201.213	3453.64
201.288	3432.69
201.363	3435.65
201.438	3440.76
201.512	3461.7
201.587	3443.08
201.662	3449.43
201.737	3461.41
201.812	3470.63
201.886	3435.47
201.961	3451.47
202.036	3443.27
202.111	3442.22
202.186	3408.84
202.26	3387.69
202.335	3363.73
202.41	3356.52
202.485	3340.64
202.559	3322.08
202.634	3293.64
202.709	3306.22
202.784	3285.18
202.858	3286.76
202.933	3269.63
203.008	3267.53
203.082	3246.45
203.157	3249.12
203.232	3208.72
203.306	3191.54
203.381	3161
203.456	3145.45
203.53	3124.06
203.605	3109.8
203.68	3092.72
203.754	3101.35
203.829	3098.58
203.904	3087.09
203.978	3091.86
204.053	3109.27
204.127	3110.61
204.202	3129.16
204.277	3131.17
204.351	3146.29
204.426	3161.32
204.5	3178.07
204.575	3167.76
204.65	3212.1
204.724	3233.35
204.799	3273.41
204.873	3302.15
204.948	3338.08
205.022	3364.47
205.097	3395.23
205.171	3457.71
205.246	3511.35
205.32	3556.12
205.395	3606.74
205.469	3654.14
205.544	3714.16
205.618	3753.62
205.693	3828.4
205.767	3872.79
205.842	3962.52
205.916	4023.5
205.991	4084.46
206.065	4162.69
206.14	4251.25
206.214	4321.55
206.289	4394.8
206.363	4488.81
206.438	4574.73
206.512	4668.11
206.586	4777.53
206.661	4881.48
206.735	4951.53
206.81	5050.05
206.884	5171.37
206.958	5261.2
207.033	5388.08
207.107	5504.42
207.181	5648.71
207.256	5753.16
207.33	5893.29
207.405	6022.8
207.479	6163.77
207.553	6292.16
207.628	6396.72
207.702	6533.76
207.776	6655.11
207.851	6788.75
207.925	6938.21
207.999	7074.66
208.073	7212.23
208.148	7346.74
208.222	7463.98
208.296	7638.69
208.371	7798.65
208.445	7950.73
208.519	8125.59
208.593	8274.56
208.668	8415.88
208.742	8564.6
208.816	8716.17
208.89	8872.89
208.965	9016.85
209.039	9169.37
209.113	9338.64
209.187	9512.71
209.261	9660.91
209.336	9829.75
209.41	10003.81
209.484	10148.86
209.558	10315.63
209.632	10474.64
209.707	10638.06
209.781	10821.08
209.855	10982.75
209.929	11149.83
210.003	11306.26
210.077	11450.11
210.151	11649.3
210.226	11831.63
210.3	12007.56
210.374	12177.45
210.448	12322.43
210.522	12474.65
210.596	12625.91
210.67	12781.8
210.744	12977.7
210.818	13157.11
210.892	13318.01
210.966	13443.3
211.041	13597.21
211.115	13733.01
211.189	13895.36
211.263	14046.97
211.337	14175.15
211.411	14330.08
211.485	14459.22
211.559	14595.68
211.633	14725.02
211.707	14824.75
211.781	14962.27
211.855	15047.54
211.929	15170.41
212.003	15284.32
212.077	15423.28
212.151	15564.22
212.225	15687.85
212.299	15786.08
212.373	15893.81
212.447	16011.75
212.52	16163.29
212.594	16286
212.668	16413.96
212.742	16513.73
212.816	16627.28
212.89	16745.66
212.964	16855.92
213.038	16974.43
213.112	17102.73
213.186	17234.73
213.26	17321.1
213.333	17373.92
213.407	17491.42
213.481	17598.02
213.555	17715.47
213.629	17811.37
213.703	17900.96
213.777	18006.5
213.85	18087.31
213.924	18216.95
213.998	18312.6
214.072	18404.7
214.146	18488.69
214.219	18577.6
214.293	18665.21
214.367	18757.11
214.441	18857.16
214.515	18934.4
214.588	18989.68
214.662	19041.05
214.736	19108.66
214.81	19203.93
214.883	19304.02
214.957	19374.14
215.031	19436.98
215.105	19486.66
215.178	19548.06
215.252	19615.52
215.326	19663.13
215.4	19721.69
215.473	19744.34
215.547	19802.21
215.621	19858.93
215.694	19936.67
215.768	19984.47
215.842	20044.52
215.915	20101.19
215.989	20131.02
216.063	20179.41
216.136	20236.61
216.21	20303.74
216.284	20375.41
216.357	20430.97
216.431	20479.36
216.504	20551.84
216.578	20635.56
216.652	20706.54
216.725	20764.23
216.799	20834.55
216.873	20889.88
216.946	20959.81
217.02	21013.64
217.093	21055.62
217.167	21082.42
217.24	21111.24
217.314	21160.26
217.387	21202.52
217.461	21243.54
217.535	21316.32
217.608	21356.76
217.682	21403.51
217.755	21460.29
217.829	21497.74
217.902	21545.51
217.976	21588.5
218.049	21622.19
218.123	21657.91
218.196	21714.11
218.27	21755.23
218.343	21779.91
218.417	21832.07
218.49	21866
218.563	21922.74
218.637	21967.37
218.71	22039.34
218.784	22091.21
218.857	22134.45
218.931	22184.58
219.004	22223.48
219.077	22269.91
219.151	22310.89
219.224	22351.14
219.298	22386.91
219.371	22437.48
219.444	22460.86
219.518	22508.64
219.591	22551.3
219.665	22603.86
219.738	22642.57
219.811	22660.41
219.885	22707.85
219.958	22749.65
220.031	22779.45
220.105	22812.81
220.178	22854.76
220.251	22882.1
220.325	22922.69
220.398	22965.94
220.471	23006.92
220.544	23053.6
220.618	23079.97
220.691	23118.98
220.764	23157.7
220.838	23187.5
220.911	23200.28
220.984	23259.3
221.057	23297.25
221.131	23325.31
221.204	23327.24
221.277	23375.37
221.35	23440.51
221.424	23457.83
221.497	23481.22
221.57	23511.59
221.643	23545.83
221.716	23583.26
221.79	23605.49
221.863	23627
221.936	23651.21
222.009	23671.75
222.082	23685.73
222.155	23690.85
222.229	23723.83
222.302	23745.87
222.375	23764.39
222.448	23795.11
222.521	23806.74
222.594	23817.2
222.667	23814.5
222.74	23834.23
222.814	23841.85
222.887	23849.95
222.96	23876.24
223.033	23908.17
223.106	23928.61
223.179	23948.15
223.252	23948.68
223.325	23951.77
223.398	23952.49
223.471	23954.03
223.544	23958.33
223.617	23974.44
223.69	23987.65
223.763	23990.01
223.837	24002.99
223.91	24007.76
223.983	23998.02
224.056	23987.55
224.129	23994.98
224.202	24019.53
224.275	24019.48
224.348	23996.62
224.42	23988.23
224.493	23967.97
224.566	23957.89
224.639	23973.95
224.712	23974.05
224.785	23974.09
224.858	23974.96
224.931	23992.04
225.004	23990.54
225.077	23988.81
225.15	23955.38
225.223	23956.06
225.296	23971.4
225.369	23947.33
225.442	23944.2
225.514	23939.52
225.587	23940.63
225.66	23948.68
225.733	23947.81
225.806	23949.26
225.879	23959.49
225.952	23933.35
226.025	23946.13
226.097	23957.12
226.17	23938.6
226.243	23898.57
226.316	23890.71
226.389	23885.07
226.461	23877.64
226.534	23884.83
226.607	23873.59
226.68	23894.71
226.753	23891.87
226.825	23870.11
226.898	23882.94
226.971	23869.92
227.044	23868.33
227.117	23867.12
227.189	23851.45
227.262	23853.57
227.335	23851.88
227.407	23829.94
227.48	23826.56
227.553	23821.35
227.626	23794.73
227.698	23781.08
227.771	23775.77
227.844	23742.69
227.916	23735.41
227.989	23697.17
228.062	23665.24
228.134	23677.49
228.207	23668.42
228.28	23646.38
228.352	23623.19
228.425	23606.16
228.498	23603.51
228.57	23581.13
228.643	23574.77
228.716	23546.12
228.788	23512.51
228.861	23489.6
228.934	23493.65
229.006	23481.5
229.079	23451.41
229.151	23423.49
229.224	23379.85
229.296	23375.65
229.369	23407
229.442	23406.42
229.514	23387.09
229.587	23392.73
229.659	23354.49
229.732	23341.95
229.804	23336.31
229.877	23341.8
229.949	23335.44
230.022	23337.9
230.094	23324.88
230.167	23308.05
230.239	23288.38
230.312	23268.7
230.384	23276.76
230.457	23251.2
230.529	23238.47
230.602	23223.76
230.674	23208.29
230.747	23213.2
230.819	23203.85
230.892	23147.34
230.964	23125.2
231.037	23115.94
231.109	23085.09
231.181	23072.4
231.254	23030.12
231.326	23009.68
231.399	22976.21
231.471	22946.07
231.544	22892.7
231.616	22879.73
231.688	22844.82
231.761	22819.12
231.833	22794.68
231.905	22748.97
231.978	22731.81
232.05	22709.58
232.122	22688.08
232.195	22658.76
232.267	22656.11
232.339	22625.79
232.412	22612.87
232.484	22579.36
232.556	22544.31
232.629	22549.23
232.701	22528.5
232.773	22509.36
232.846	22474.99
232.918	22458.69
232.99	22431.6
233.062	22424.07
233.135	22396.6
233.207	22370.32
233.279	22343.04
233.351	22323.8
233.424	22286.83
233.496	22251.74
233.568	22252.55
233.64	22204.4
233.713	22185.16
233.785	22148.53
233.857	22119.51
233.929	22078.39
234.001	22068.84
234.074	22062
234.146	22003.23
234.218	21979.37
234.29	21945.92
234.362	21919.22
234.434	21862.87
234.507	21825.41
234.579	21779.23
234.651	21754.02
234.723	21729.97
234.795	21717.1
234.867	21694.69
234.939	21687.51
235.012	21654.25
235.084	21618.38
235.156	21609.18
235.228	21570.33
235.3	21538.03
235.372	21515.14
235.444	21506.94
235.516	21436.28
235.588	21409.19
235.66	21384.08
235.732	21341.72
235.804	21370.4
235.876	21345.14
235.948	21338.97
236.02	21307.55
236.092	21275.59
236.164	21242.96
236.236	21211.83
236.308	21177.13
236.38	21137.17
236.452	21089.79
236.524	21064.92
236.596	21047.67
236.668	21030.08
236.74	20996.49
236.812	20969.93
236.884	20935.61
236.956	20895.03
237.028	20860.19
237.1	20804.96
237.172	20790.65
237.244	20779.42
237.316	20712.85
237.388	20662.44
237.46	20618.2
237.532	20601.04
237.604	20560.61
237.675	20531.21
237.747	20502.44
237.819	20458.01
237.891	20428.08
237.963	20382.64
238.035	20332.71
238.107	20251.31
238.178	20221
238.25	20178.73
238.322	20162.49
238.394	20115.12
238.466	20075.31
238.538	20059.94
238.609	20032.28
238.681	19966.26
238.753	19917.68
238.825	19881.15
238.897	19851.85
238.968	19838.31
239.04	19786.12
239.112	19779.95
239.184	19729.88
239.255	19688.72
239.327	19659.57
239.399	19620.78
239.471	19597.4
239.542	19575.09
239.614	19551.33
239.686	19480.93
239.758	19473.65
239.829	19418.81
239.901	19402.28
239.973	19370.86
240.044	19342.43
240.116	19317.32
240.188	19284.65
240.259	19242.43
240.331	19194
240.403	19172.17
240.474	19109.67
240.546	19063.02
240.618	19001.49
240.689	18972.14
240.761	18937.68
240.833	18921.2
240.904	18879.18
240.976	18843.04
241.048	18807.18
241.119	18787.38
241.191	18754.75
241.262	18730.08
241.334	18688.59
241.405	18646.9
241.477	18593.03
241.549	18546.14
241.62	18504.65
241.692	18473.08
241.763	18448.65
241.835	18415.26
241.906	18375.79
241.978	18334.34
242.049	18324.9
242.121	18297.77
242.192	18265.14
242.264	18210.69
242.335	18154.11
242.407	18126.11
242.478	18080.81
242.55	18050.45
242.621	18007.8
242.693	17985.35
242.764	17941.78
242.836	17905.25
242.907	17873.83
242.979	17853.59
243.05	17822.8
243.122	17798.7
243.193	17767.28
243.264	17709.26
243.336	17673.26
243.407	17646.17
243.479	17627.48
243.55	17585.45
243.622	17552.87
243.693	17516.68
243.764	17503.57
243.836	17450.46
243.907	17414.75
243.978	17378.66
244.05	17343.62
244.121	17287.23
244.192	17253.5
244.264	17195.14
244.335	17157.3
244.407	17103.13
244.478	17071.04
244.549	17037.59
244.62	16988.43
244.692	16950.79
244.763	16926.6
244.834	16881.73
244.906	16838.88
244.977	16803.99
245.048	16792.14
245.119	16751.17
245.191	16710.06
245.262	16647.79
245.333	16640.03
245.405	16609.43
245.476	16587.3
245.547	16557.37
245.618	16543.54
245.689	16514.67
245.761	16489.61
245.832	16458.62
245.903	16427.1
245.974	16404.01
246.045	16365.7
246.117	16345.98
246.188	16297.64
246.259	16247.8
246.33	16220.81
246.401	16174.93
246.473	16128.08
246.544	16075.35
246.615	16058.67
246.686	16021.66
246.757	16010.23
246.828	15964.54
246.899	15945.55
246.97	15891.66
247.042	15851.56
247.113	15815.17
247.184	15802.93
247.255	15769.38
247.326	15739.4
247.397	15704.79
247.468	15662.43
247.539	15633.12
247.61	15584.53
247.681	15564.53
247.752	15551.66
247.823	15507.36
247.894	15481.33
247.965	15435.88
248.037	15405.27
248.108	15353.07
248.179	15326.41
248.25	15290.89
248.321	15277.87
248.392	15234.88
248.463	15230.49
248.534	15194.39
248.605	15174.24
248.675	15143.2
248.746	15110.71
248.817	15090.61
248.888	15078.22
248.959	15037.49
249.03	15013.29
249.101	14989.67
249.172	14957.33
249.243	14904.26
249.314	14891
249.385	14864.82
249.456	14849.3
249.527	14819.37
249.598	14794.25
249.669	14767.84
249.739	14739.11
249.81	14706.57
249.881	14665.79
249.952	14636.67
250.023	14607.27
250.094	14565.33
250.165	14522.72
250.235	14494.09
250.306	14470.61
250.377	14425.63
250.448	14404.71
250.519	14358.24
250.59	14345.23
250.66	14313.22
250.731	14313.46
250.802	14289.5
250.873	14266.51
250.944	14241.01
251.014	14205.67
251.085	14209.05
251.156	14181.57
251.227	14181.33
251.297	14169.37
251.368	14158.53
251.439	14140.88
251.51	14135.2
251.58	14097.93
251.651	14066.89
251.722	14057.15
251.792	14006.87
251.863	13986.48
251.934	13979.15
252.005	13983.97
252.075	13964.59
252.146	13956.01
252.217	13940.35
252.287	13923.47
252.358	13904.19
252.429	13906.26
252.499	13880.57
252.57	13863.75
252.641	13857.14
252.711	13828.94
252.782	13786.13
252.852	13779.58
252.923	13754.17
252.994	13728.91
253.064	13720.53
253.135	13686.25
253.205	13652.65
253.276	13649.71
253.347	13640.89
253.417	13598.27
253.488	13573.69
253.558	13538.4
253.629	13507.74
253.699	13492.41
253.77	13477.03
253.841	13450.95
253.911	13422.99
253.982	13399.47
254.052	13377.97
254.123	13355.22
254.193	13328.37
254.264	13352.42
254.334	13310.14
254.405	13276.49
254.475	13237.54
254.546	13213.92
254.616	13208.38
254.687	13195.32
254.757	13179.46
254.827	13155.21
254.898	13143.78
254.968	13115.2
255.039	13087.43
255.109	13081.79
255.18	13040.91
255.25	12992.66
255.321	12980.07
255.391	12947.68
255.461	12952.4
255.532	12904.2
255.602	12874.02
255.673	12833.43
255.743	12795.2
255.813	12753.75
255.884	12747
255.954	12744.16
256.024	12748.93
256.095	12724.44
256.165	12689.64
256.235	12675.61
256.306	12643.36
256.376	12637.33
256.446	12626.29
256.517	12612.41
256.587	12601.71
256.657	12593.47
256.728	12574.38
256.798	12548.59
256.868	12525.06
256.938	12495.71
257.009	12489.3
257.079	12475.32
257.149	12488.57
257.219	12447.94
257.29	12439.45
257.36	12400.26
257.43	12390.86
257.5	12341.99
257.571	12324.15
257.641	12309.16
257.711	12268.43
257.781	12256.81
257.852	12237.96
257.922	12195.83
257.992	12173.47
258.062	12145.08
258.132	12130.33
258.202	12118.52
258.273	12105.98
258.343	12103.57
258.413	12076
258.483	12051.71
258.553	12026.88
258.623	11988.61
258.693	11977.33
258.764	11973.09
258.834	11972.51
258.904	11948.46
258.974	11928.22
259.044	11899.58
259.114	11888.84
259.184	11874.81
259.254	11862.57
259.324	11823.38
259.394	11817.02
259.464	11816.54
259.535	11800.58
259.605	11773.2
259.675	11741.54
259.745	11728.67
259.815	11696.57
259.885	11669
259.955	11681.44
260.025	11658.01
260.095	11644.56
260.165	11632.32
260.235	11634.39
260.305	11603.89
260.375	11573.33
260.445	11578.92
260.515	11589.72
260.585	11590.63
260.655	11571.88
260.725	11559.06
260.795	11549.18
260.865	11555.93
260.934	11530.14
261.004	11519.35
261.074	11505.52
261.144	11509.13
261.214	11496.26
261.284	11487.06
261.354	11494.29
261.424	11466.28
261.494	11463.97
261.564	11444.21
261.634	11430.42
261.703	11383.24
261.773	11379.48
261.843	11376.69
