Data from 20250703_urea_0.1M_MAYP1162681_15-01-05-618.txt Node
Date: Thu Jul 03 15:01:05 BST 2025
User: adleo
Spectrometer: MAYP116268
Trigger mode: 0
Integration Time (sec): 1.000000E0
Scans to average: 1
Electric dark correction enabled: true
Nonlinearity correction enabled: true
Boxcar width: 10
XAxis mode: Wavelengths
Number of Pixels in Spectrum: 2068
>>>>>Begin Spectral Data<<<<<
179.565	1271.01
179.642	1329.08
179.718	1374.07
179.795	1413.35
179.871	1449.79
179.948	1467.32
180.024	1485.96
180.101	1509.57
180.177	1524.34
180.254	1547.72
180.33	1571.67
180.407	1630.93
180.483	1729.94
180.56	1824.82
180.636	1913.99
180.712	1898.25
180.789	1908.57
180.865	1918.78
180.942	1924.58
181.018	1936.47
181.095	1949.64
181.171	1956.25
181.248	1957.97
181.324	1976.99
181.4	1985.84
181.477	1996.82
181.553	2012.37
181.63	2037.62
181.706	2054.56
181.782	2063.68
181.859	2064.87
181.935	2070.53
182.011	2067.16
182.088	2087.09
182.164	2107.69
182.24	2120.62
182.317	2131.47
182.393	2128.61
182.469	2144.79
182.546	2161.2
182.622	2166
182.698	2159.91
182.775	2172.61
182.851	2187.27
182.927	2177.32
183.003	2174.09
183.08	2168.09
183.156	2178.08
183.232	2172.94
183.308	2158.67
183.385	2168.76
183.461	2186.17
183.537	2185.51
183.613	2200.49
183.69	2191.26
183.766	2179.55
183.842	2188.26
183.918	2195.73
183.995	2210
184.071	2216.05
184.147	2209.62
184.223	2201.87
184.299	2215.34
184.375	2202.25
184.452	2209.78
184.528	2262.22
184.604	2272.31
184.68	2283.77
184.756	2289.3
184.832	2294.67
184.908	2300.19
184.985	2300
185.061	2281.63
185.137	2295.34
185.213	2281.59
185.289	2281.21
185.365	2272.84
185.441	2269.03
185.517	2282.12
185.593	2278.74
185.669	2273.55
185.745	2283.98
185.822	2298.39
185.898	2291.2
185.974	2300.1
186.05	2292.62
186.126	2253.79
186.202	2246.65
186.278	2242.37
186.354	2233.8
186.43	2239.61
186.506	2238.32
186.582	2237.09
186.658	2247.6
186.734	2222.24
186.81	2224.38
186.886	2227.71
186.962	2241.84
187.038	2241.89
187.114	2232.03
187.19	2241.65
187.266	2233.23
187.341	2234.94
187.417	2230.13
187.493	2226.8
187.569	2229.52
187.645	2221.38
187.721	2211.29
187.797	2217.24
187.873	2224.95
187.949	2219.14
188.025	2212.34
188.101	2216.09
188.176	2220.85
188.252	2213.95
188.328	2223.61
188.404	2223.75
188.48	2218.61
188.556	2213.52
188.632	2213.76
188.707	2214.81
188.783	2209.62
188.859	2203.72
188.935	2190.16
189.011	2194.58
189.086	2191.92
189.162	2184.35
189.238	2181.5
189.314	2180.26
189.39	2178.45
189.465	2168.37
189.541	2185.74
189.617	2170.89
189.693	2166.66
189.768	2169.42
189.844	2195.03
189.92	2186.28
189.996	2198.32
190.071	2210.4
190.147	2206.02
190.223	2212.93
190.298	2205.64
190.374	2192.28
190.45	2202.74
190.526	2213.54
190.601	2209.26
190.677	2209.36
190.753	2238.16
190.828	2243.44
190.904	2254.48
190.98	2268
191.055	2278.89
191.131	2267.61
191.207	2288.6
191.282	2297.44
191.358	2286.26
191.433	2269.6
191.509	2282.54
191.585	2276.4
191.66	2277.44
191.736	2290.67
191.811	2282.39
191.887	2300.72
191.963	2326.56
192.038	2335.27
192.114	2335.89
192.189	2337.46
192.265	2331.8
192.34	2309.9
192.416	2306.85
192.491	2304.66
192.567	2307.38
192.642	2310.33
192.718	2313.28
192.793	2301.95
192.869	2299.57
192.944	2303.19
193.02	2311.8
193.095	2318.08
193.171	2324.46
193.246	2324.37
193.322	2317.75
193.397	2318.99
193.473	2301.09
193.548	2283.1
193.624	2287
193.699	2284.19
193.775	2302.28
193.85	2307.61
193.925	2316.6
194.001	2315.61
194.076	2306.99
194.152	2294.52
194.227	2286.09
194.302	2273.25
194.378	2276.91
194.453	2277.01
194.529	2291
194.604	2275.63
194.679	2268.97
194.755	2248.99
194.83	2259.08
194.905	2256.89
194.981	2265.46
195.056	2259.51
195.131	2266.46
195.207	2262.98
195.282	2254.28
195.357	2233.76
195.433	2249.42
195.508	2236.62
195.583	2243.28
195.659	2262.51
195.734	2271.93
195.809	2269.98
195.884	2282.59
195.96	2286.82
196.035	2300.1
196.11	2294.1
196.185	2306.19
196.261	2311.85
196.336	2345.02
196.411	2332.69
196.486	2337.45
196.561	2330.74
196.637	2340.78
196.712	2357.35
196.787	2361.87
196.862	2377.72
196.937	2391.9
197.013	2395.62
197.088	2405.42
197.163	2429.99
197.238	2447.05
197.313	2444.1
197.388	2458.43
197.464	2489.24
197.539	2498.53
197.614	2489.34
197.689	2504.1
197.764	2523.39
197.839	2544.2
197.914	2537.39
197.989	2560.34
198.065	2577.96
198.14	2630.82
198.215	2659.2
198.29	2668.07
198.365	2681.31
198.44	2693.12
198.515	2720.85
198.59	2736.72
198.665	2763.97
198.74	2777.46
198.815	2780.03
198.89	2806.57
198.965	2838.98
199.04	2835.26
199.115	2852.32
199.19	2900.92
199.265	2904.11
199.34	2914.12
199.415	2944.69
199.49	2966.75
199.565	2979.15
199.64	3001.27
199.715	2999.83
199.79	3006.7
199.865	3016.66
199.94	3016.71
200.015	3051.62
200.09	3055.19
200.165	3063.16
200.24	3074.84
200.315	3115.84
200.39	3128.91
200.464	3135.68
200.539	3138.21
200.614	3152.04
200.689	3174.41
200.764	3179.66
200.839	3199.11
200.914	3204.21
200.989	3196.57
201.063	3213.51
201.138	3192.68
201.213	3192.49
201.288	3169.36
201.363	3178.37
201.438	3176.94
201.512	3192.77
201.587	3172.64
201.662	3179.79
201.737	3193.39
201.812	3197.68
201.886	3158.96
201.961	3170.42
202.036	3159.21
202.111	3155.97
202.186	3128.85
202.26	3113.2
202.335	3090.45
202.41	3084.25
202.485	3069.81
202.559	3051.55
202.634	3025.65
202.709	3038.52
202.784	3022.83
202.858	3030.03
202.933	3014.29
203.008	3015.63
203.082	3003.76
203.157	3006.33
203.232	2969.72
203.306	2956.13
203.381	2930.33
203.456	2920.7
203.53	2911.25
203.605	2903.34
203.68	2895.66
203.754	2904.14
203.829	2906.77
203.904	2906.43
203.978	2913.63
204.053	2937.19
204.127	2946.01
204.202	2969.28
204.277	2977.14
204.351	2998.7
204.426	3018.16
204.5	3040.2
204.575	3036.86
204.65	3084.29
204.724	3119.66
204.799	3166.67
204.873	3207.53
204.948	3253.95
205.022	3288.02
205.097	3325.89
205.171	3391.37
205.246	3454.7
205.32	3514.06
205.395	3574.1
205.469	3633.78
205.544	3709.18
205.618	3767.85
205.693	3856.69
205.767	3922.83
205.842	4029.54
205.916	4107.84
205.991	4190.19
206.065	4285.37
206.14	4396.9
206.214	4487.24
206.289	4584.32
206.363	4702.16
206.438	4812.6
206.512	4930.31
206.586	5069.24
206.661	5192.98
206.735	5293.86
206.81	5419.68
206.884	5565.82
206.958	5683.46
207.033	5835.71
207.107	5977.7
207.181	6143.6
207.256	6282.4
207.33	6449.49
207.405	6611.72
207.479	6788.25
207.553	6945.06
207.628	7085.59
207.702	7254.32
207.776	7405.18
207.851	7564.48
207.925	7751.64
207.999	7913.6
208.073	8079.9
208.148	8247.5
208.222	8413.54
208.296	8616.49
208.371	8805.46
208.445	8987.11
208.519	9198.47
208.593	9381.03
208.668	9558.95
208.742	9744.86
208.816	9926.95
208.89	10118.66
208.965	10293.35
209.039	10474.2
209.113	10674.09
209.187	10870.73
209.261	11055.31
209.336	11266.89
209.41	11470.78
209.484	11649.15
209.558	11865.59
209.632	12065.46
209.707	12258.83
209.781	12457.65
209.855	12661.68
209.929	12866.79
210.003	13056.51
210.077	13238.34
210.151	13468.17
210.226	13688.75
210.3	13895.98
210.374	14092.65
210.448	14271.2
210.522	14452.69
210.596	14649.69
210.67	14833.88
210.744	15057.92
210.818	15267.94
210.892	15457.52
210.966	15622.94
211.041	15800.42
211.115	15948.3
211.189	16148.85
211.263	16337.02
211.337	16508.99
211.411	16682.74
211.485	16829.98
211.559	17006.04
211.633	17158.1
211.707	17276.89
211.781	17424.75
211.855	17543.69
211.929	17690.63
212.003	17829.52
212.077	17991.93
212.151	18142.58
212.225	18303.35
212.299	18444.16
212.373	18566.47
212.447	18705.16
212.52	18867.85
212.594	19013.2
212.668	19162.01
212.742	19261.86
212.816	19373.76
212.89	19502.38
212.964	19636.21
213.038	19768.4
213.112	19910.85
213.186	20057.07
213.26	20165.64
213.333	20254.6
213.407	20372.29
213.481	20498.89
213.555	20627.95
213.629	20734.51
213.703	20837.17
213.777	20940.65
213.85	21025.62
213.924	21172.14
213.998	21281.99
214.072	21385.71
214.146	21483.17
214.219	21582.27
214.293	21690.1
214.367	21798.45
214.441	21916.12
214.515	21994.64
214.588	22074.95
214.662	22131.93
214.736	22205.64
214.81	22306.19
214.883	22402.99
214.957	22483.39
215.031	22560.62
215.105	22616.64
215.178	22685.63
215.252	22764.22
215.326	22824.39
215.4	22888.12
215.473	22917.2
215.547	22968.55
215.621	23037.17
215.694	23107.28
215.768	23152.36
215.842	23210.51
215.915	23275.08
215.989	23301.22
216.063	23357.4
216.136	23412.52
216.21	23476.6
216.284	23549.91
216.357	23616.46
216.431	23669.99
216.504	23745.32
216.578	23818.97
216.652	23893.09
216.725	23955.79
216.799	24012.37
216.873	24069.19
216.946	24126
217.02	24171.92
217.093	24219.53
217.167	24248.42
217.24	24285.56
217.314	24337.8
217.387	24374.99
217.461	24397.61
217.535	24469.73
217.608	24505.67
217.682	24544.07
217.755	24590.04
217.829	24610.16
217.902	24644.61
217.976	24690.34
218.049	24714.13
218.123	24739.7
218.196	24782.98
218.27	24821.58
218.343	24838.9
218.417	24876.92
218.49	24912.53
218.563	24955.08
218.637	25004.4
218.71	25048.45
218.784	25090.82
218.857	25142.06
218.931	25177.53
219.004	25226.98
219.077	25249.18
219.151	25281.85
219.224	25318.53
219.298	25349.36
219.371	25395.31
219.444	25410.6
219.518	25433.72
219.591	25466.58
219.665	25521.37
219.738	25546.85
219.811	25555.2
219.885	25594.73
219.958	25625.86
220.031	25653.32
220.105	25686.62
220.178	25707.86
220.251	25735.04
220.325	25764.38
220.398	25780.75
220.471	25813.66
220.544	25843.83
220.618	25862.03
220.691	25890.02
220.764	25910.3
220.838	25933.27
220.911	25943.99
220.984	25987.05
221.057	26006.21
221.131	26025.08
221.204	25998.24
221.277	26028.66
221.35	26069.69
221.424	26076.78
221.497	26090.59
221.57	26104.83
221.643	26122.84
221.716	26127.96
221.79	26120.52
221.863	26118.2
221.936	26124.58
222.009	26127.38
222.082	26135.78
222.155	26142.92
222.229	26156.05
222.302	26165.32
222.375	26162.47
222.448	26178.31
222.521	26175.9
222.594	26179.81
222.667	26159.19
222.74	26175.41
222.814	26164.21
222.887	26155.91
222.96	26169.28
223.033	26176.19
223.106	26172.9
223.179	26168.75
223.252	26169.14
223.325	26172.42
223.398	26173.14
223.471	26161.66
223.544	26162.72
223.617	26146.3
223.69	26133.41
223.763	26123.32
223.837	26120.43
223.91	26108.46
223.983	26082.39
224.056	26056.46
224.129	26054.77
224.202	26064.57
224.275	26046.04
224.348	26021.32
224.42	26000.81
224.493	25958.13
224.566	25931.87
224.639	25925.69
224.712	25903.49
224.785	25879.49
224.858	25861.39
224.931	25840.64
225.004	25816.89
225.077	25793.43
225.15	25757.19
225.223	25739.09
225.296	25743.19
225.369	25698.21
225.442	25682.76
225.514	25659.11
225.587	25638.26
225.66	25607.81
225.733	25587.2
225.806	25570.93
225.879	25555.44
225.952	25526.72
226.025	25532.47
226.097	25532.66
226.17	25502.06
226.243	25458.39
226.316	25439.23
226.389	25425.47
226.461	25408.77
226.534	25397.87
226.607	25372.39
226.68	25381.51
226.753	25354
226.825	25302.6
226.898	25307.43
226.971	25282.86
227.044	25259.8
227.117	25240.01
227.189	25230.56
227.262	25211.98
227.335	25197.4
227.407	25165.9
227.48	25139.26
227.553	25104.13
227.626	25063.98
227.698	25034.16
227.771	25015.92
227.844	24980.46
227.916	24953.54
227.989	24916.86
228.062	24882.8
228.134	24877.64
228.207	24838.94
228.28	24815.3
228.352	24786.83
228.425	24747.95
228.498	24726.77
228.57	24688.85
228.643	24682.77
228.716	24643.74
228.788	24610.88
228.861	24572.91
228.934	24564.08
229.006	24537.84
229.079	24507.21
229.151	24475.85
229.224	24437.65
229.296	24414.93
229.369	24407.16
229.442	24386.71
229.514	24345.08
229.587	24332.78
229.659	24279.09
229.732	24249.76
229.804	24227.81
229.877	24225.64
229.949	24216.86
230.022	24211.85
230.094	24194.39
230.167	24169.21
230.239	24125.51
230.312	24102.79
230.384	24103.42
230.457	24067
230.529	24039.89
230.602	24013.8
230.674	23981.63
230.747	23971.41
230.819	23955.88
230.892	23903.6
230.964	23879.62
231.037	23855.46
231.109	23824.79
231.181	23811.33
231.254	23770.73
231.326	23731.18
231.399	23688.79
231.471	23645.96
231.544	23588.32
231.616	23557.37
231.688	23513.91
231.761	23489.13
231.833	23446.31
231.905	23383.27
231.978	23352.51
232.05	23321.55
232.122	23291.32
232.195	23257.8
232.267	23238.8
232.339	23198.78
232.412	23180.84
232.484	23138.12
232.556	23101.67
232.629	23080.84
232.701	23060.92
232.773	23039.61
232.846	23008.17
232.918	22971.33
232.99	22934.69
233.062	22902.87
233.135	22884.16
233.207	22840.58
233.279	22809.24
233.351	22773.85
233.424	22728.92
233.496	22689.05
233.568	22671.26
233.64	22624.93
233.713	22589.97
233.785	22542.34
233.857	22516.88
233.929	22467.81
234.001	22446.59
234.074	22432.9
234.146	22385.8
234.218	22343.47
234.29	22296.61
234.362	22255.45
234.434	22207.82
234.507	22158.89
234.579	22114.4
234.651	22066.82
234.723	22041.03
234.795	22011.28
234.867	21984.87
234.939	21964.91
235.012	21932.23
235.084	21889.81
235.156	21859.59
235.228	21816.3
235.3	21782.17
235.372	21740.38
235.444	21710.69
235.516	21652.22
235.588	21608.55
235.66	21572.59
235.732	21526.8
235.804	21545.79
235.876	21519.48
235.948	21497.16
236.02	21467.95
236.092	21427.95
236.164	21388.57
236.236	21347.41
236.308	21302.01
236.38	21266
236.452	21219.01
236.524	21182.33
236.596	21163.77
236.668	21134.23
236.74	21091.82
236.812	21055.57
236.884	21024.29
236.956	20989.35
237.028	20939.33
237.1	20895.86
237.172	20869.25
237.244	20842.94
237.316	20759.89
237.388	20707.31
237.46	20646.2
237.532	20621.81
237.604	20575.84
237.675	20560.51
237.747	20527.4
237.819	20487.84
237.891	20446.68
237.963	20409.86
238.035	20368.85
238.107	20289.24
238.178	20265.62
238.25	20223.79
238.322	20206.63
238.394	20145.33
238.466	20100.61
238.538	20067.51
238.609	20045.24
238.681	19981.63
238.753	19930.79
238.825	19904.28
238.897	19874.45
238.968	19870.93
239.04	19808.33
239.112	19792.04
239.184	19725.16
239.255	19680.77
239.327	19646.03
239.399	19605.98
239.471	19570.71
239.542	19530.9
239.614	19512.64
239.686	19437.17
239.758	19419
239.829	19369.7
239.901	19349.85
239.973	19315.54
240.044	19294.29
240.116	19245.95
240.188	19219.4
240.259	19181.62
240.331	19133.86
240.403	19097.29
240.474	19030.59
240.546	18988.62
240.618	18932.48
240.689	18889.64
240.761	18859.61
240.833	18834.36
240.904	18790.08
240.976	18751.52
241.048	18721.17
241.119	18687.82
241.191	18671.14
241.262	18647.92
241.334	18603.53
241.405	18559.44
241.477	18506.38
241.549	18451.98
241.62	18411.64
241.692	18371.64
241.763	18351.98
241.835	18313.04
241.906	18282.3
241.978	18232.9
242.049	18215.31
242.121	18184.42
242.192	18165.87
242.264	18100.14
242.335	18035.95
242.407	18007.32
242.478	17955.8
242.55	17913.68
242.621	17861.97
242.693	17804.53
242.764	17752.73
242.836	17707.91
242.907	17672.1
242.979	17648.97
243.05	17621.6
243.122	17582.03
243.193	17542.32
243.264	17478.71
243.336	17444.92
243.407	17403.33
243.479	17386.8
243.55	17360.2
243.622	17332.78
243.693	17294.51
243.764	17283.53
243.836	17244.25
243.907	17199.96
243.978	17172.97
244.05	17137.26
244.121	17087.81
244.192	17068.15
244.264	17022.79
244.335	16983.03
244.407	16936.38
244.478	16901.92
244.549	16861.39
244.62	16816.23
244.692	16780.04
244.763	16752.52
244.834	16700.71
244.906	16658.78
244.977	16631.06
245.048	16594.24
245.119	16543.73
245.191	16502.91
245.262	16443.44
245.333	16429.51
245.405	16405.27
245.476	16368.59
245.547	16337.45
245.618	16323.38
245.689	16289.45
245.761	16254.75
245.832	16219.71
245.903	16198.11
245.974	16162.11
246.045	16132.18
246.117	16112.66
246.188	16064.7
246.259	16021.9
246.33	15990.95
246.401	15958.85
246.473	15907.76
246.544	15873.3
246.615	15859.08
246.686	15820.62
246.757	15807.08
246.828	15758.68
246.899	15743.02
246.97	15706.48
247.042	15668.5
247.113	15634.71
247.184	15623.29
247.255	15591.62
247.326	15562.51
247.397	15522.79
247.468	15495.46
247.539	15465.19
247.61	15422.14
247.681	15408.17
247.752	15392.74
247.823	15347.14
247.894	15317.88
247.965	15275.66
248.037	15241.19
248.108	15191.21
248.179	15160.41
248.25	15121.17
248.321	15101.31
248.392	15045.83
248.463	15031.99
248.534	14995.75
248.605	14975.74
248.675	14933.47
248.746	14903.39
248.817	14883.1
248.888	14857.98
248.959	14812.33
249.03	14787.22
249.101	14758.83
249.172	14725.03
249.243	14671.91
249.314	14671.05
249.385	14649.64
249.456	14624.72
249.527	14588.28
249.598	14571.6
249.669	14553.43
249.739	14536.51
249.81	14515.92
249.881	14482.28
249.952	14453.55
250.023	14431.52
250.094	14393.87
250.165	14364.61
250.235	14333.66
250.306	14307.92
250.377	14269.4
250.448	14249.01
250.519	14200.23
250.59	14194.87
250.66	14164.94
250.731	14149.99
250.802	14122.66
250.873	14092.2
250.944	14079.42
251.014	14040.23
251.085	14035.99
251.156	14002.82
251.227	13984.55
251.297	13965.32
251.368	13947.77
251.439	13934.18
251.51	13923.28
251.58	13892.33
251.651	13860.42
251.722	13846.1
251.792	13802.24
251.863	13772.73
251.934	13763.81
252.005	13767.19
252.075	13734.46
252.146	13719.51
252.217	13709.44
252.287	13684.32
252.358	13668.99
252.429	13657.76
252.499	13637.22
252.57	13605.22
252.641	13594.66
252.711	13568.82
252.782	13529.53
252.852	13523.41
252.923	13497.18
252.994	13465.32
253.064	13450.47
253.135	13420.97
253.205	13390.26
253.276	13378.93
253.347	13378.02
253.417	13340.13
253.488	13310.09
253.558	13285.94
253.629	13261.84
253.699	13237.5
253.77	13224.87
253.841	13186.93
253.911	13167.69
253.982	13143.2
254.052	13137.47
254.123	13113.85
254.193	13089.7
254.264	13106.52
254.334	13076.05
254.405	13034.55
254.475	13005.86
254.546	12978.58
254.616	12975.01
254.687	12962.14
254.757	12951.78
254.827	12921.36
254.898	12909.89
254.968	12883.57
255.039	12847.75
255.109	12830.73
255.18	12803.5
255.25	12758.71
255.321	12751.34
255.391	12715.38
255.461	12725.36
255.532	12672.47
255.602	12645
255.673	12604.41
255.743	12569.75
255.813	12525.35
255.884	12526.66
255.954	12516.24
256.024	12516.44
256.095	12492.19
256.165	12462.3
256.235	12446.06
256.306	12420.41
256.376	12411.06
256.446	12397.13
256.517	12389.47
256.587	12377.85
256.657	12359.15
256.728	12342.13
256.798	12321.45
256.868	12296.63
256.938	12265.25
257.009	12258.98
257.079	12249.48
257.149	12265.78
257.219	12222.54
257.29	12209.04
257.36	12158.38
257.43	12150.86
257.5	12107.05
257.571	12081.06
257.641	12066.51
257.711	12033.54
257.781	12023.8
257.852	12010.11
257.922	11976.56
257.992	11958.63
258.062	11939.21
258.132	11932.75
258.202	11914.63
258.273	11895.68
258.343	11898.67
258.413	11873.32
258.483	11852.78
258.553	11820.97
258.623	11782.03
258.693	11769.69
258.764	11771.13
258.834	11777.69
258.904	11753.92
258.974	11724.81
259.044	11703.94
259.114	11688.91
259.184	11677.15
259.254	11663.31
259.324	11617.67
259.394	11608.42
259.464	11600.32
259.535	11571.69
259.605	11542.91
259.675	11515.78
259.745	11504.6
259.815	11465.8
259.885	11435.34
259.955	11445.99
260.025	11414.43
260.095	11401.9
260.165	11399.87
260.235	11396.11
260.305	11370.62
260.375	11342.23
260.445	11348.74
260.515	11342.18
260.585	11335.87
260.655	11311.05
260.725	11297.89
260.795	11297.89
260.865	11295.14
260.934	11274.23
261.004	11270.8
261.074	11255.58
261.144	11260.11
261.214	11248.97
261.284	11237.65
261.354	11237.7
261.424	11206.51
261.494	11215.09
261.564	11195.96
261.634	11180
261.703	11144
261.773	11132.63
261.843	11128.44
261.913	11109.93
