Data from 20250703_urea_0.1M_MAYP1162681_03-41-04-963.txt Node
Date: Fri Jul 04 03:41:04 BST 2025
User: adleo
Spectrometer: MAYP116268
Trigger mode: 0
Integration Time (sec): 1.000000E0
Scans to average: 1
Electric dark correction enabled: true
Nonlinearity correction enabled: true
Boxcar width: 10
XAxis mode: Wavelengths
Number of Pixels in Spectrum: 2068
>>>>>Begin Spectral Data<<<<<
179.565	1293.04
179.642	1353.04
179.718	1405.57
179.795	1444.82
179.871	1477.64
179.948	1493.88
180.024	1516.95
180.101	1545.4
180.177	1562.28
180.254	1586.77
180.33	1611.91
180.407	1670.94
180.483	1771.18
180.56	1868.02
180.636	1956.71
180.712	1943.77
180.789	1957.99
180.865	1970.73
180.942	1981.57
181.018	1989.56
181.095	2006.16
181.171	2011.91
181.248	2013.86
181.324	2027.52
181.4	2036.41
181.477	2046.54
181.553	2066.75
181.63	2090.82
181.706	2103.85
181.782	2109.22
181.859	2107.18
181.935	2113.17
182.011	2111.27
182.088	2129.35
182.164	2150.81
182.24	2165.46
182.317	2174.68
182.393	2172.92
182.469	2187.1
182.546	2200.18
182.622	2206.27
182.698	2198.09
182.775	2210.37
182.851	2225.35
182.927	2217.6
183.003	2212.79
183.08	2209.23
183.156	2213.7
183.232	2204.94
183.308	2193.33
183.385	2203.27
183.461	2223.3
183.537	2222.35
183.613	2237.06
183.69	2229.87
183.766	2219.92
183.842	2229.92
183.918	2236.96
183.995	2251.52
184.071	2258.9
184.147	2251.28
184.223	2239.96
184.299	2254.91
184.375	2242.2
184.452	2247.58
184.528	2298.94
184.604	2308.31
184.68	2322.68
184.756	2332.44
184.832	2340.01
184.908	2346.19
184.985	2345.33
185.061	2328.92
185.137	2342.1
185.213	2328.3
185.289	2329.63
185.365	2319.55
185.441	2316.31
185.517	2331.12
185.593	2323.79
185.669	2317.46
185.745	2329.88
185.822	2345.39
185.898	2335.15
185.974	2346.19
186.05	2338.19
186.126	2303.97
186.202	2299.93
186.278	2296.83
186.354	2285.93
186.43	2293.22
186.506	2289.08
186.582	2291.08
186.658	2299.12
186.734	2274.75
186.81	2279.89
186.886	2280.7
186.962	2292.83
187.038	2290.26
187.114	2279.65
187.19	2290.4
187.266	2280.32
187.341	2281.46
187.417	2276.75
187.493	2278.46
187.569	2280.32
187.645	2273.75
187.721	2259.76
187.797	2268.99
187.873	2270.03
187.949	2265.18
188.025	2257.94
188.101	2261.51
188.176	2265.89
188.252	2261.99
188.328	2270.93
188.404	2269.6
188.48	2265.84
188.556	2260.37
188.632	2259.7
188.707	2262.51
188.783	2254.56
188.859	2250.14
188.935	2239.43
189.011	2246.99
189.086	2240.05
189.162	2232.62
189.238	2228.87
189.314	2228.77
189.39	2221.16
189.465	2215.83
189.541	2232.01
189.617	2215.07
189.693	2210.46
189.768	2213.5
189.844	2238.45
189.92	2228.56
189.996	2239.22
190.071	2251.92
190.147	2249.97
190.223	2256.54
190.298	2245.83
190.374	2232.84
190.45	2245.26
190.526	2252.68
190.601	2246.54
190.677	2250.49
190.753	2276.96
190.828	2282.82
190.904	2296.33
190.98	2311.76
191.055	2324.51
191.131	2315.85
191.207	2339.74
191.282	2352.11
191.358	2343.35
191.433	2325.73
191.509	2339.34
191.585	2334.62
191.66	2334.96
191.736	2343
191.811	2335.67
191.887	2353.14
191.963	2380.41
192.038	2385.6
192.114	2385.79
192.189	2389.03
192.265	2383.23
192.34	2361.8
192.416	2359.13
192.491	2353.94
192.567	2357.99
192.642	2355.99
192.718	2357.13
192.793	2342.52
192.869	2335.29
192.944	2337.1
193.02	2347.52
193.095	2351.38
193.171	2357.04
193.246	2356.33
193.322	2354.09
193.397	2360.52
193.473	2348.47
193.548	2329.47
193.624	2335.04
193.699	2334.14
193.775	2352.38
193.85	2354.95
193.925	2363.75
194.001	2364.94
194.076	2356.9
194.152	2344.57
194.227	2341.23
194.302	2330.2
194.378	2333.24
194.453	2333.53
194.529	2351.47
194.604	2334.1
194.679	2325.01
194.755	2305.5
194.83	2318.74
194.905	2319.88
194.981	2326.22
195.056	2317.03
195.131	2323.74
195.207	2323.03
195.282	2314.22
195.357	2292.56
195.433	2308.41
195.508	2298.75
195.583	2307.5
195.659	2322.07
195.734	2330.59
195.809	2329.92
195.884	2338.87
195.96	2341.96
196.035	2356.57
196.11	2349.62
196.185	2363.66
196.261	2370.85
196.336	2405.55
196.411	2390.83
196.486	2392.02
196.561	2383.22
196.637	2393.59
196.712	2410.5
196.787	2413.54
196.862	2428.58
196.937	2441.25
197.013	2447.91
197.088	2457.67
197.163	2479.15
197.238	2499.83
197.313	2498.5
197.388	2510.88
197.464	2543.17
197.539	2552.36
197.614	2544.98
197.689	2555.08
197.764	2574.85
197.839	2596.33
197.914	2588.04
197.989	2612
198.065	2627.71
198.14	2681.52
198.215	2706.77
198.29	2720.73
198.365	2735.6
198.44	2749.32
198.515	2776.15
198.59	2791.35
198.665	2820.13
198.74	2832.95
198.815	2834.14
198.89	2859.44
198.965	2891.91
199.04	2887.43
199.115	2905.15
199.19	2949.24
199.265	2949.62
199.34	2957.44
199.415	2992.35
199.49	3016.94
199.565	3027.43
199.64	3053.79
199.715	3049.69
199.79	3061.13
199.865	3067.85
199.94	3066.47
200.015	3098.05
200.09	3102.91
200.165	3108.73
200.24	3117.22
200.315	3156.89
200.39	3171.91
200.464	3179.83
200.539	3181.98
200.614	3201.1
200.689	3228.1
200.764	3235.88
200.839	3259.66
200.914	3263.81
200.989	3253.27
201.063	3263.71
201.138	3244.98
201.213	3244.03
201.288	3226.62
201.363	3229
201.438	3231.96
201.512	3250.94
201.587	3230.18
201.662	3237.91
201.737	3252.27
201.812	3260.05
201.886	3224.91
201.961	3237.65
202.036	3221.82
202.111	3218.58
202.186	3187.93
202.26	3168.56
202.335	3147.71
202.41	3140.32
202.485	3126.73
202.559	3109.18
202.634	3085.67
202.709	3098.49
202.784	3082.32
202.858	3084.85
202.933	3068.54
203.008	3061.82
203.082	3042.32
203.157	3046.94
203.232	3004.81
203.306	2987.35
203.381	2958.88
203.456	2940.23
203.53	2920.91
203.605	2908.61
203.68	2890.87
203.754	2892.11
203.829	2888.11
203.904	2878.29
203.978	2878.95
204.053	2895.88
204.127	2894.36
204.202	2906.8
204.277	2904.89
204.351	2912.47
204.426	2921.72
204.5	2930.93
204.575	2914.62
204.65	2947.49
204.724	2961.13
204.799	2995.68
204.873	3019.01
204.948	3044.05
205.022	3062.12
205.097	3085.12
205.171	3132.67
205.246	3178.06
205.32	3214.77
205.395	3250.85
205.469	3280.56
205.544	3329.07
205.618	3350.78
205.693	3408.78
205.767	3444.2
205.842	3514.78
205.916	3558.6
205.991	3600.87
206.065	3661.42
206.14	3734.41
206.214	3787.9
206.289	3845.54
206.363	3918.93
206.438	3987.21
206.512	4062.74
206.586	4150.6
206.661	4227.72
206.735	4275.81
206.81	4345.29
206.884	4436.55
206.958	4505.05
207.033	4599.04
207.107	4688.79
207.181	4809.55
207.256	4888.07
207.33	4994.85
207.405	5093.82
207.479	5201.79
207.553	5306.23
207.628	5378.79
207.702	5485.95
207.776	5572.95
207.851	5667.54
207.925	5782.86
207.999	5876.44
208.073	5971.89
208.148	6078.13
208.222	6167.25
208.296	6303.44
208.371	6427.47
208.445	6543.76
208.519	6676.9
208.593	6796.56
208.668	6896.44
208.742	7000.39
208.816	7111.97
208.89	7235.54
208.965	7337.37
209.039	7461.39
209.113	7581.15
209.187	7721.14
209.261	7823.16
209.336	7956.12
209.41	8087.61
209.484	8198.12
209.558	8332.68
209.632	8462.43
209.707	8586.63
209.781	8723.34
209.855	8852.53
209.929	8986.28
210.003	9108.03
210.077	9224.92
210.151	9392.94
210.226	9542.85
210.3	9689.13
210.374	9830.03
210.448	9943.12
210.522	10070.18
210.596	10188.39
210.67	10314.4
210.744	10470.88
210.818	10618.67
210.892	10754.06
210.966	10856.34
211.041	10983.65
211.115	11087.58
211.189	11219.43
211.263	11336.57
211.337	11450.5
211.411	11574.41
211.485	11671.96
211.559	11784.01
211.633	11877.65
211.707	11941.47
211.781	12046.36
211.855	12106.28
211.929	12193.23
212.003	12267.12
212.077	12376.2
212.151	12488.66
212.225	12590.08
212.299	12671.45
212.373	12750.7
212.447	12835.35
212.52	12970.8
212.594	13059.5
212.668	13166.85
212.742	13234.44
212.816	13326.99
212.89	13406.77
212.964	13489.35
213.038	13577.47
213.112	13677.11
213.186	13793.44
213.26	13863.05
213.333	13906.53
213.407	13998.89
213.481	14086.77
213.555	14192.29
213.629	14263.25
213.703	14331.61
213.777	14417.75
213.85	14486.05
213.924	14610.9
213.998	14691.93
214.072	14762.12
214.146	14835.24
214.219	14911.35
214.293	15002.12
214.367	15079.34
214.441	15176.57
214.515	15245.3
214.588	15301.85
214.662	15346.63
214.736	15391.12
214.81	15469.3
214.883	15558.33
214.957	15614.53
215.031	15670.74
215.105	15713.16
215.178	15767.91
215.252	15831.01
215.326	15869.71
215.4	15913.28
215.473	15922.34
215.547	15973.34
215.621	16012.96
215.694	16080.77
215.768	16116.44
215.842	16161.65
215.915	16210.23
215.989	16229.41
216.063	16275.59
216.136	16329.61
216.21	16382.82
216.284	16457.05
216.357	16518.3
216.431	16568.48
216.504	16635.76
216.578	16721.5
216.652	16794.18
216.725	16857.7
216.799	16912.59
216.873	16969.03
216.946	17031.4
217.02	17088.17
217.093	17126.97
217.167	17160.12
217.24	17193.71
217.314	17242.53
217.387	17282.73
217.461	17325.43
217.535	17395.74
217.608	17438.1
217.682	17483.79
217.755	17543.16
217.829	17571.79
217.902	17623.11
217.976	17666.44
218.049	17705.28
218.123	17730.82
218.196	17776.12
218.27	17811.78
218.343	17850.24
218.417	17897.03
218.49	17943.97
218.563	17995.63
218.637	18057.8
218.71	18128.4
218.784	18177.8
218.857	18241.7
218.931	18294.42
219.004	18335.91
219.077	18392
219.151	18443.33
219.224	18488.77
219.298	18528.48
219.371	18590.55
219.444	18616.38
219.518	18665.58
219.591	18713.29
219.665	18787.5
219.738	18841.37
219.811	18872.51
219.885	18924.17
219.958	18977.56
220.031	19019.2
220.105	19068.4
220.178	19113.02
220.251	19147.96
220.325	19201.5
220.398	19244.19
220.471	19287.95
220.544	19353.44
220.618	19378.11
220.691	19417.63
220.764	19477.39
220.838	19530.83
220.911	19563.84
220.984	19634.15
221.057	19678.1
221.131	19726.77
221.204	19736.7
221.277	19779.73
221.35	19851.54
221.424	19892.11
221.497	19930.76
221.57	19972.98
221.643	20022.23
221.716	20063.14
221.79	20101.07
221.863	20132.63
221.936	20160.63
222.009	20197.16
222.082	20220.49
222.155	20247.19
222.229	20305.93
222.302	20324.82
222.375	20340.78
222.448	20383.96
222.521	20395.09
222.594	20416
222.667	20431.33
222.74	20464.73
222.814	20492.44
222.887	20514.51
222.96	20537.55
223.033	20583.77
223.106	20614.75
223.179	20634.9
223.252	20663.96
223.325	20684.49
223.398	20706.56
223.471	20735.14
223.544	20757.07
223.617	20782.52
223.69	20821.7
223.763	20826.23
223.837	20850.76
223.91	20886.95
223.983	20884.11
224.056	20897.8
224.129	20925.08
224.202	20955.1
224.275	20977.61
224.348	20987.44
224.42	20993.95
224.493	21001.27
224.566	20993.27
224.639	21005.56
224.712	21015.06
224.785	21022.24
224.858	21039.3
224.931	21050.91
225.004	21054.63
225.077	21069.9
225.15	21058.87
225.223	21052.89
225.296	21087.4
225.369	21086.44
225.442	21091.45
225.514	21108.94
225.587	21130.97
225.66	21144.18
225.733	21158.2
225.806	21159.99
225.879	21170.11
225.952	21166.49
226.025	21199.75
226.097	21225.49
226.17	21239.46
226.243	21236.67
226.316	21237.1
226.389	21241.3
226.461	21259.23
226.534	21272.53
226.607	21281.93
226.68	21314.56
226.753	21326.89
226.825	21298.12
226.898	21323.81
226.971	21328.05
227.044	21329.01
227.117	21330.89
227.189	21339.47
227.262	21344.05
227.335	21357.74
227.407	21353.93
227.48	21370.18
227.553	21359.96
227.626	21363.72
227.698	21366.99
227.771	21375.77
227.844	21367.09
227.916	21376.2
227.989	21353.98
228.062	21352.44
228.134	21369.4
228.207	21369.45
228.28	21364.63
228.352	21378.18
228.425	21370.71
228.498	21384.59
228.57	21387.14
228.643	21409.41
228.716	21410.66
228.788	21404.98
228.861	21404.69
228.934	21427.87
229.006	21416.78
229.079	21417.22
229.151	21406.33
229.224	21379.91
229.296	21379.38
229.369	21403.29
229.442	21396.35
229.514	21388.16
229.587	21394.42
229.659	21367.53
229.732	21363.09
229.804	21376.92
229.877	21385.26
229.949	21395.05
230.022	21406.47
230.094	21413.41
230.167	21404.5
230.239	21387.72
230.312	21378.03
230.384	21381.65
230.457	21364.54
230.529	21369.79
230.602	21367.43
230.674	21364.2
230.747	21381.7
230.819	21386.28
230.892	21352.73
230.964	21359.86
231.037	21363.43
231.109	21352.05
231.181	21362.75
231.254	21331.14
231.326	21318.36
231.399	21314.61
231.471	21291.81
231.544	21258.74
231.616	21252.33
231.688	21244.57
231.761	21223.08
231.833	21221.15
231.905	21193.24
231.978	21186.88
232.05	21170.06
232.122	21157.29
232.195	21137.57
232.267	21135.07
232.339	21107.69
232.412	21107.16
232.484	21092.56
232.556	21064.12
232.629	21071.93
232.701	21053.76
232.773	21048.03
232.846	21020.84
232.918	20994.14
232.99	20982.77
233.062	20974.62
233.135	20958.43
233.207	20912.55
233.279	20911.87
233.351	20893.32
233.424	20874.23
233.496	20843.34
233.568	20837.07
233.64	20796.45
233.713	20778.13
233.785	20754.9
233.857	20742.42
233.929	20716.2
234.001	20709.89
234.074	20714.85
234.146	20670.8
234.218	20650.56
234.29	20633.93
234.362	20620.34
234.434	20593.98
234.507	20563.96
234.579	20521.88
234.651	20489.35
234.723	20482.99
234.795	20467.18
234.867	20444.2
234.939	20440.92
235.012	20423.67
235.084	20412.63
235.156	20405.59
235.228	20375.67
235.3	20340.44
235.372	20323.81
235.444	20312.34
235.516	20265.16
235.588	20249.5
235.66	20228.39
235.732	20193.64
235.804	20230.9
235.876	20205.6
235.948	20194.08
236.02	20171.81
236.092	20145.74
236.164	20121.02
236.236	20092.93
236.308	20052.45
236.38	20028.25
236.452	19983.92
236.524	19963.63
236.596	19963.05
236.668	19942.91
236.74	19918.91
236.812	19906.67
236.884	19885.61
236.956	19853.85
237.028	19813.61
237.1	19774.1
237.172	19771.25
237.244	19768.7
237.316	19696.94
237.388	19670.63
237.46	19627.79
237.532	19617.18
237.604	19582.01
237.675	19563.21
237.747	19544.95
237.819	19507.02
237.891	19480.95
237.963	19449.72
238.035	19410.64
238.107	19327.22
238.178	19310.79
238.25	19272.82
238.322	19259.33
238.394	19211.86
238.466	19180.05
238.538	19167.04
238.609	19137.65
238.681	19071.58
238.753	19015.92
238.825	18990.47
238.897	18961.9
238.968	18947.59
239.04	18899.15
239.112	18901.03
239.184	18863.64
239.255	18828.94
239.327	18814.15
239.399	18780.9
239.471	18754.06
239.542	18723.21
239.614	18712.18
239.686	18652.86
239.758	18633.19
239.829	18581.92
239.901	18562.69
239.973	18528.91
240.044	18505.3
240.116	18468.38
240.188	18442.41
240.259	18419.04
240.331	18378.8
240.403	18353.07
240.474	18301.55
240.546	18266.37
240.618	18211.68
240.689	18167.53
240.761	18131.97
240.833	18109.61
240.904	18069.7
240.976	18022.53
241.048	17995.06
241.119	17972.94
241.191	17950.38
241.262	17936.26
241.334	17904.75
241.405	17873.37
241.477	17835.25
241.549	17782.68
241.62	17762
241.692	17735.4
241.763	17711.55
241.835	17673.19
241.906	17635.84
241.978	17595.21
242.049	17570.3
242.121	17549.62
242.192	17540.03
242.264	17494.73
242.335	17437.91
242.407	17416.75
242.478	17394.63
242.55	17369.14
242.621	17325.38
242.693	17288.7
242.764	17249.77
242.836	17211.93
242.907	17176.7
242.979	17154.25
243.05	17133.19
243.122	17103.5
243.193	17073.91
243.264	17015.45
243.336	16983.93
243.407	16963.88
243.479	16943.54
243.55	16909.42
243.622	16880.6
243.693	16843.97
243.764	16833.18
243.836	16793.08
243.907	16756.21
243.978	16720.97
244.05	16690.32
244.121	16634.9
244.192	16605.64
244.264	16550.26
244.335	16517.35
244.407	16466.88
244.478	16437.82
244.549	16401.67
244.62	16348.7
244.692	16308.7
244.763	16293.13
244.834	16258.14
244.906	16205.46
244.977	16177.31
245.048	16161.94
245.119	16114.95
245.191	16066.94
245.262	16005.15
245.333	15992.86
245.405	15959.26
245.476	15933.38
245.547	15898.49
245.618	15878.87
245.689	15846.43
245.761	15824.21
245.832	15790.76
245.903	15764.49
245.974	15731.14
246.045	15693.01
246.117	15678.26
246.188	15635.46
246.259	15589.81
246.33	15554.58
246.401	15530.86
246.473	15485.99
246.544	15453.74
246.615	15431.71
246.686	15402.89
246.757	15393.3
246.828	15346.01
246.899	15325.04
246.97	15280.79
247.042	15238.52
247.113	15225.55
247.184	15221.02
247.255	15183.95
247.326	15155.76
247.397	15124.09
247.468	15095.89
247.539	15075.4
247.61	15032.89
247.681	15013.17
247.752	14998.52
247.823	14960.87
247.894	14931.13
247.965	14893.14
248.037	14852.03
248.108	14804.26
248.179	14771.53
248.25	14730.65
248.321	14709.78
248.392	14675.55
248.463	14670.3
248.534	14648.12
248.605	14620.55
248.675	14583.24
248.746	14568.92
248.817	14555.09
248.888	14538.7
248.959	14492.71
249.03	14464.37
249.101	14435.54
249.172	14403.29
249.243	14354.22
249.314	14347.47
249.385	14320.52
249.456	14303.94
249.527	14273.43
249.598	14262.77
249.669	14240.74
249.739	14222.66
249.81	14199.43
249.881	14154.4
249.952	14126.54
250.023	14097.71
250.094	14049.7
250.165	14010.03
250.235	13969.97
250.306	13939.31
250.377	13898.87
250.448	13879.63
250.519	13826.36
250.59	13819.42
250.66	13793.2
250.731	13790.74
250.802	13754.34
250.873	13724.7
250.944	13704.59
251.014	13672.54
251.085	13676.63
251.156	13651.9
251.227	13635.75
251.297	13626.21
251.368	13617.44
251.439	13600.03
251.51	13586.92
251.58	13553.95
251.651	13522.61
251.722	13509.69
251.792	13460.23
251.863	13430.73
251.934	13425.48
252.005	13443.07
252.075	13418.68
252.146	13408.12
252.217	13386.57
252.287	13370.47
252.358	13352.06
252.429	13350.61
252.499	13319.33
252.57	13286.45
252.641	13272.61
252.711	13246.97
252.782	13209.22
252.852	13205.51
252.923	13178.18
252.994	13155.14
253.064	13145.49
253.135	13119.41
253.205	13097.14
253.276	13103.46
253.347	13109.29
253.417	13071.3
253.488	13037.42
253.558	13014.47
253.629	12989.35
253.699	12974.51
253.77	12965.68
253.841	12939.27
253.911	12916.66
253.982	12900.56
254.052	12888.27
254.123	12873.52
254.193	12856.79
254.264	12878.63
254.334	12843.05
254.405	12816.92
254.475	12784.62
254.546	12756.71
254.616	12750.16
254.687	12726.63
254.757	12701.04
254.827	12669.17
254.898	12653.07
254.968	12632.34
255.039	12597.64
255.109	12580.86
255.18	12548.52
255.25	12500.02
255.321	12485.56
255.391	12446.66
255.461	12455.72
255.532	12401.4
255.602	12379.27
255.673	12337.72
255.743	12294.09
255.813	12252.3
255.884	12238.18
255.954	12227.43
256.024	12234.71
256.095	12213.98
256.165	12187.42
256.235	12171.95
256.306	12143.8
256.376	12138.59
256.446	12129.34
256.517	12120.71
256.587	12117.87
256.657	12105.04
256.728	12091.69
256.798	12079.16
256.868	12056.6
256.938	12020.98
257.009	12012.98
257.079	11992.93
257.149	12001.55
257.219	11969.6
257.29	11958.27
257.36	11920.48
257.43	11909.59
257.5	11863.99
257.571	11836.28
257.641	11826.01
257.711	11787.64
257.781	11777.67
257.852	11764.31
257.922	11724.93
257.992	11699.92
258.062	11673.02
258.132	11660.01
258.202	11639.04
258.273	11614.46
258.343	11614.99
258.413	11592.48
258.483	11579.9
258.553	11544.19
258.623	11516.62
258.693	11503.27
258.764	11501.63
258.834	11497.68
258.904	11487.27
258.974	11461.78
259.044	11444.57
259.114	11430.3
259.184	11425.2
259.254	11407.07
259.324	11366.64
259.394	11353.58
259.464	11354.93
259.535	11335.36
259.605	11309.33
259.675	11282.44
259.745	11270.3
259.815	11237.24
259.885	11203.74
259.955	11215.21
260.025	11195.94
260.095	11176.47
260.165	11167.55
260.235	11171.26
260.305	11143.7
260.375	11103.94
260.445	11112.52
260.515	11111.07
260.585	11108.32
260.655	11087.51
260.725	11079.84
260.795	11070.64
260.865	11073.15
260.934	11043.94
261.004	11038.5
261.074	11024.23
261.144	11025.87
261.214	11019.7
261.284	11014.11
261.354	11020.86
261.424	10987.12
261.494	10995.79
261.564	10983.99
261.634	10971.6
261.703	10924.66
261.773	10924.91
261.843	10923.56
261.913	10899.8
