Data from 20250703_urea_0.1M_MAYP1162681_01-31-05-607.txt Node
Date: Fri Jul 04 01:31:05 BST 2025
User: adleo
Spectrometer: MAYP116268
Trigger mode: 0
Integration Time (sec): 1.000000E0
Scans to average: 1
Electric dark correction enabled: true
Nonlinearity correction enabled: true
Boxcar width: 10
XAxis mode: Wavelengths
Number of Pixels in Spectrum: 2068
>>>>>Begin Spectral Data<<<<<
179.565	1329.57
179.642	1395.81
179.718	1447.95
179.795	1491.78
179.871	1526.44
179.948	1547.59
180.024	1573.36
180.101	1599.21
180.177	1614.3
180.254	1640.51
180.33	1662.7
180.407	1725.39
180.483	1828.91
180.56	1928.98
180.636	2022.33
180.712	2006.15
180.789	2020.04
180.865	2033.11
180.942	2041.34
181.018	2052.47
181.095	2068.03
181.171	2076.07
181.248	2075.31
181.324	2091.48
181.4	2096.53
181.477	2108.75
181.553	2122.73
181.63	2142.1
181.706	2158.32
181.782	2167.78
181.859	2165.6
181.935	2173.64
182.011	2169.31
182.088	2188.86
182.164	2211.19
182.24	2224.31
182.317	2236.16
182.393	2233.78
182.469	2250.86
182.546	2270.18
182.622	2274.56
182.698	2270.28
182.775	2281.41
182.851	2297.02
182.927	2286.6
183.003	2283.55
183.08	2279.46
183.156	2289.5
183.232	2287.69
183.308	2277.32
183.385	2285.79
183.461	2305.68
183.537	2307.44
183.613	2321.53
183.69	2312.72
183.766	2300.39
183.842	2309.86
183.918	2315.38
183.995	2329.71
184.071	2331.33
184.147	2319.38
184.223	2306.44
184.299	2319.1
184.375	2306.35
184.452	2313.16
184.528	2364.43
184.604	2377.32
184.68	2389.98
184.756	2397.27
184.832	2403.5
184.908	2406.64
184.985	2407.93
185.061	2391.94
185.137	2402.17
185.213	2390.8
185.289	2392.51
185.365	2385.09
185.441	2383.04
185.517	2401.85
185.593	2396.9
185.669	2394.71
185.745	2411.09
185.822	2431.5
185.898	2422.78
185.974	2433.2
186.05	2426.06
186.126	2393.36
186.202	2386.17
186.278	2381.79
186.354	2371.04
186.43	2377.46
186.506	2376.32
186.582	2378.32
186.658	2385.41
186.734	2364.19
186.81	2367.04
186.886	2368.71
186.962	2383.65
187.038	2379.61
187.114	2368.46
187.19	2377.46
187.266	2366.66
187.341	2365.13
187.417	2358.47
187.493	2361.75
187.569	2365.51
187.645	2360.85
187.721	2348.99
187.797	2357.94
187.873	2363.13
187.949	2358.85
188.025	2350.04
188.101	2353.03
188.176	2356.18
188.252	2349.28
188.328	2357.32
188.404	2358.41
188.48	2353.56
188.556	2345.56
188.632	2342.28
188.707	2342.89
188.783	2338.66
188.859	2334.04
188.935	2323.33
189.011	2331.76
189.086	2321.48
189.162	2312.15
189.238	2307.15
189.314	2302.96
189.39	2296.82
189.465	2289.25
189.541	2304.91
189.617	2288.12
189.693	2284.78
189.768	2288.07
189.844	2314.35
189.92	2304.88
189.996	2313.79
190.071	2325.16
190.147	2323.21
190.223	2336.92
190.298	2329.73
190.374	2318.26
190.45	2330.87
190.526	2337.58
190.601	2331.53
190.677	2332.39
190.753	2363.54
190.828	2368.06
190.904	2384.96
190.98	2398.29
191.055	2408.24
191.131	2402.05
191.207	2424.66
191.282	2431.6
191.358	2420.51
191.433	2405.51
191.509	2420.83
191.585	2418.59
191.66	2419.88
191.736	2429.07
191.811	2417.5
191.887	2436.03
191.963	2460.64
192.038	2467.64
192.114	2468.26
192.189	2469.97
192.265	2466.78
192.34	2438.63
192.416	2437.73
192.491	2431.68
192.567	2436.97
192.642	2437.49
192.718	2438.87
192.793	2424.5
192.869	2423.93
192.944	2428.21
193.02	2436.92
193.095	2437.92
193.171	2444.3
193.246	2443.11
193.322	2440.16
193.397	2444.78
193.473	2427.16
193.548	2404.87
193.624	2411.3
193.699	2410.49
193.775	2428.25
193.85	2430.4
193.925	2443.87
194.001	2442.35
194.076	2434.97
194.152	2419.83
194.227	2414.97
194.302	2401.88
194.378	2408.07
194.453	2403.5
194.529	2417.74
194.604	2401.6
194.679	2396.79
194.755	2375.8
194.83	2391.14
194.905	2388.85
194.981	2394.61
195.056	2390.52
195.131	2396.76
195.207	2395.56
195.282	2384.47
195.357	2364.9
195.433	2379.75
195.508	2367.66
195.583	2374.66
195.659	2389.85
195.734	2400.65
195.809	2400.04
195.884	2407.32
195.96	2408.12
196.035	2427.07
196.11	2418.6
196.185	2430.88
196.261	2435.26
196.336	2467.68
196.411	2451.87
196.486	2457.67
196.561	2454.2
196.637	2462.24
196.712	2482.82
196.787	2482.2
196.862	2500.81
196.937	2514.72
197.013	2523.29
197.088	2533.48
197.163	2559.54
197.238	2578.79
197.313	2578.36
197.388	2593.37
197.464	2629.05
197.539	2640.62
197.614	2629.91
197.689	2647.72
197.764	2664.3
197.839	2686.64
197.914	2679.54
197.989	2704.08
198.065	2717.32
198.14	2766.13
198.215	2792.24
198.29	2805.93
198.365	2821.22
198.44	2832.42
198.515	2860.68
198.59	2877.65
198.665	2906.87
198.74	2914.45
198.815	2916.36
198.89	2943.19
198.965	2973.66
199.04	2969.09
199.115	2985.43
199.19	3033.77
199.265	3035.67
199.34	3047.4
199.415	3082.85
199.49	3108.06
199.565	3117.74
199.64	3143.78
199.715	3144.26
199.79	3154.7
199.865	3157.42
199.94	3158.23
200.015	3190.91
200.09	3193.1
200.165	3199.73
200.24	3206.55
200.315	3249.38
200.39	3264.74
200.464	3270.51
200.539	3274.43
200.614	3293.7
200.689	3320.51
200.764	3330.25
200.839	3348.52
200.914	3355.91
200.989	3345.98
201.063	3358.96
201.138	3340.27
201.213	3339.22
201.288	3318.47
201.363	3321.14
201.438	3324.1
201.512	3338.36
201.587	3321.32
201.662	3328.72
201.737	3343.32
201.812	3352.29
201.886	3316.28
201.961	3328.46
202.036	3316.53
202.111	3313
202.186	3280.05
202.26	3264.3
202.335	3237.15
202.41	3232.53
202.485	3215.64
202.559	3195.32
202.634	3171.47
202.709	3183.48
202.784	3168.51
202.858	3172.99
202.933	3156.44
203.008	3153.72
203.082	3137.17
203.157	3140.85
203.232	3101.47
203.306	3081.57
203.381	3052.19
203.456	3033.97
203.53	3013.35
203.605	2999.38
203.68	2982.5
203.754	2987.6
203.829	2977.34
203.904	2970.19
203.978	2970.05
204.053	2987.64
204.127	2988.17
204.202	3001.81
204.277	2999.81
204.351	3009.1
204.426	3020.36
204.5	3031.38
204.575	3016.98
204.65	3055.67
204.724	3071.28
204.799	3105.94
204.873	3129.56
204.948	3158.04
205.022	3177.83
205.097	3203.8
205.171	3254.27
205.246	3302.54
205.32	3336.93
205.395	3380.7
205.469	3411.13
205.544	3461.33
205.618	3487.97
205.693	3554.87
205.767	3588.01
205.842	3666.02
205.916	3718.32
205.991	3762.7
206.065	3834.71
206.14	3911.26
206.214	3967.97
206.289	4026.26
206.363	4107
206.438	4183.06
206.512	4265.36
206.586	4359.14
206.661	4445.96
206.735	4501.3
206.81	4583.03
206.884	4679.1
206.958	4746.91
207.033	4850.61
207.107	4945.66
207.181	5072.56
207.256	5157.7
207.33	5280
207.405	5389.34
207.479	5505.48
207.553	5613.45
207.628	5689.19
207.702	5803.97
207.776	5903.46
207.851	6013.41
207.925	6133.82
207.999	6232.05
208.073	6336.78
208.148	6448.15
208.222	6548.03
208.296	6694.01
208.371	6825.28
208.445	6962.43
208.519	7113.31
208.593	7241.54
208.668	7350.45
208.742	7466.9
208.816	7581.63
208.89	7707.81
208.965	7819.93
209.039	7941.86
209.113	8085.57
209.187	8230.45
209.261	8346.81
209.336	8491.3
209.41	8630.85
209.484	8749.92
209.558	8900.62
209.632	9034.76
209.707	9166.51
209.781	9312.38
209.855	9453.33
209.929	9590.7
210.003	9715.86
210.077	9838.1
210.151	10017.59
210.226	10176.98
210.3	10335.45
210.374	10481.98
210.448	10605.51
210.522	10740.9
210.596	10873.98
210.67	10999.07
210.744	11172.49
210.818	11324.57
210.892	11459.7
210.966	11573.43
211.041	11711.89
211.115	11825.73
211.189	11971.87
211.263	12103.78
211.337	12218.98
211.411	12347.39
211.485	12446.3
211.559	12566.47
211.633	12669.91
211.707	12742.89
211.781	12866.3
211.855	12932.05
211.929	13038.87
212.003	13125.25
212.077	13239.11
212.151	13358.86
212.225	13468
212.299	13557.03
212.373	13649.88
212.447	13744.65
212.52	13877.41
212.594	13978.78
212.668	14089.99
212.742	14164.71
212.816	14263.63
212.89	14353.39
212.964	14449.7
213.038	14557.05
213.112	14669.75
213.186	14791.47
213.26	14864.02
213.333	14903.98
213.407	15000.43
213.481	15087.25
213.555	15204.82
213.629	15280.69
213.703	15356.37
213.777	15450.02
213.85	15519.67
213.924	15648.65
213.998	15748.33
214.072	15822.65
214.146	15889.55
214.219	15965.18
214.293	16049.48
214.367	16136.24
214.441	16239.67
214.515	16310.28
214.588	16368.36
214.662	16404.99
214.736	16461.62
214.81	16547.27
214.883	16628.72
214.957	16685.06
215.031	16749.89
215.105	16777.22
215.178	16834.86
215.252	16892.12
215.326	16930
215.4	16977.71
215.473	16986.29
215.547	17019.25
215.621	17073.37
215.694	17140.46
215.768	17182.48
215.842	17221.47
215.915	17253.96
215.989	17275.02
216.063	17315.3
216.136	17365.38
216.21	17423.06
216.284	17492.8
216.357	17546
216.431	17606.44
216.504	17676.02
216.578	17753.52
216.652	17836.46
216.725	17899.54
216.799	17971.83
216.873	18028.16
216.946	18083.87
217.02	18134.95
217.093	18184.64
217.167	18207.48
217.24	18248.73
217.314	18298.56
217.387	18349.6
217.461	18403.04
217.535	18475.23
217.608	18518.94
217.682	18571.8
217.755	18633.58
217.829	18668.18
217.902	18724.18
217.976	18775.07
218.049	18823.3
218.123	18855.45
218.196	18895.59
218.27	18930.19
218.343	18952.98
218.417	19006.33
218.49	19051.14
218.563	19112.59
218.637	19158.61
218.71	19239.23
218.784	19294.94
218.857	19352.52
218.931	19404.23
219.004	19452.47
219.077	19504.9
219.151	19552.56
219.224	19590.97
219.298	19639.59
219.371	19698.63
219.444	19726.14
219.518	19767.06
219.591	19792.65
219.665	19871.59
219.738	19930.19
219.811	19961.46
219.885	20011.87
219.958	20055.72
220.031	20096.83
220.105	20135.82
220.178	20190.61
220.251	20217.79
220.325	20259.33
220.398	20298.8
220.471	20345.55
220.544	20389.07
220.618	20406.61
220.691	20450.46
220.764	20494.37
220.838	20535.62
220.911	20558.47
220.984	20617.79
221.057	20667.96
221.131	20724.88
221.204	20718.61
221.277	20774.91
221.35	20849.32
221.424	20880.26
221.497	20916.07
221.57	20948.98
221.643	20994.96
221.716	21027.35
221.79	21050.97
221.863	21080.51
221.936	21108.51
222.009	21141.48
222.082	21176.95
222.155	21205.63
222.229	21249.49
222.302	21287.32
222.375	21301.98
222.448	21336.82
222.521	21355.77
222.594	21369.5
222.667	21378.32
222.74	21414.13
222.814	21427.1
222.887	21441.37
222.96	21476.12
223.033	21518.15
223.106	21556.08
223.179	21584.57
223.252	21611.9
223.325	21641.5
223.398	21671.81
223.471	21693.55
223.544	21713.51
223.617	21731.44
223.69	21749.32
223.763	21752.6
223.837	21770.63
223.91	21808.37
223.983	21815.07
224.056	21829.82
224.129	21849
224.202	21881.73
224.275	21886.89
224.348	21882.31
224.42	21877.58
224.493	21878.89
224.566	21875.75
224.639	21894.46
224.712	21892.53
224.785	21889.15
224.858	21906.99
224.931	21906.8
225.004	21917.79
225.077	21931.04
225.15	21923.62
225.223	21938.51
225.296	21977.61
225.369	21953.56
225.442	21945.41
225.514	21950.71
225.587	21960.4
225.66	21976.12
225.733	21979.88
225.806	22000.07
225.879	22005.38
225.952	22003.59
226.025	22017.33
226.097	22036.03
226.17	22033.38
226.243	22017.77
226.316	22028.52
226.389	22019.74
226.461	22030.68
226.534	22032.81
226.607	22033.1
226.68	22052.18
226.753	22048.47
226.825	22015.26
226.898	22046.4
226.971	22040.47
227.044	22052.52
227.117	22047.36
227.189	22050.45
227.262	22066.31
227.335	22054.3
227.407	22053.87
227.48	22067.7
227.553	22075.9
227.626	22067.9
227.698	22059.7
227.771	22066.5
227.844	22051.75
227.916	22053.67
227.989	22030.78
228.062	22024.99
228.134	22046.83
228.207	22044.28
228.28	22048.85
228.352	22051.6
228.425	22045.43
228.498	22058.4
228.57	22033.09
228.643	22042.88
228.716	22030.2
228.788	22015.35
228.861	22012.8
228.934	22020.41
229.006	22011.93
229.079	21992.7
229.151	21974.09
229.224	21954.04
229.296	21951.19
229.369	21974.48
229.442	21983.59
229.514	21966.91
229.587	21973.37
229.659	21942.13
229.732	21933.36
229.804	21933.5
229.877	21947
229.949	21956.06
230.022	21967.05
230.094	21970.19
230.167	21962.52
230.239	21940.35
230.312	21922.13
230.384	21936.93
230.457	21939.24
230.529	21930.04
230.602	21925.12
230.674	21923.48
230.747	21931.58
230.819	21939.97
230.892	21903.57
230.964	21893.01
231.037	21895.23
231.109	21875.28
231.181	21872.82
231.254	21853.83
231.326	21831.22
231.399	21807.98
231.471	21775.4
231.544	21733.75
231.616	21739.53
231.688	21728.06
231.761	21716.25
231.833	21701.5
231.905	21663.14
231.978	21644.53
232.05	21628.43
232.122	21614.45
232.195	21591.12
232.267	21590.45
232.339	21560.71
232.412	21556.23
232.484	21532.32
232.556	21507.5
232.629	21520.94
232.701	21509.09
232.773	21501.28
232.846	21478
232.918	21467.06
232.99	21455.78
233.062	21446.33
233.135	21415.1
233.207	21379.87
233.279	21372.35
233.351	21362.03
233.424	21347.38
233.496	21314.56
233.568	21319.52
233.64	21281.4
233.713	21265.49
233.785	21242.98
233.857	21225.58
233.929	21178.59
234.001	21164.37
234.074	21162.16
234.146	21113.24
234.218	21092.41
234.29	21063.35
234.362	21039.74
234.434	20996.31
234.507	20964.41
234.579	20925.95
234.651	20904.07
234.723	20899.97
234.795	20882.67
234.867	20860.59
234.939	20852.83
235.012	20828.3
235.084	20796.01
235.156	20784.16
235.228	20748.83
235.3	20713.55
235.372	20695.38
235.444	20689.94
235.516	20646.03
235.588	20625.84
235.66	20598.03
235.732	20558.12
235.804	20594.75
235.876	20582.37
235.948	20572.44
236.02	20542.51
236.092	20519.38
236.164	20494.51
236.236	20457.65
236.308	20420.54
236.38	20395.72
236.452	20356.01
236.524	20336.87
236.596	20330.95
236.668	20317.12
236.74	20288.01
236.812	20262.13
236.884	20233.26
236.956	20208.4
237.028	20172.78
237.1	20128.45
237.172	20113.41
237.244	20104.78
237.316	20023.09
237.388	19979.39
237.46	19938.13
237.532	19927.39
237.604	19887.05
237.675	19862.72
237.747	19836.31
237.819	19789.08
237.891	19741.95
237.963	19695.88
238.035	19660.94
238.107	19590.34
238.178	19566.97
238.25	19539.5
238.322	19531.31
238.394	19487.5
238.466	19444.37
238.538	19434.3
238.609	19405.97
238.681	19361.05
238.753	19313.59
238.825	19291.95
238.897	19275.28
238.968	19269.44
239.04	19222.94
239.112	19217.83
239.184	19180.58
239.255	19137.98
239.327	19115.29
239.399	19097.26
239.471	19083.14
239.542	19048.25
239.614	19036.01
239.686	18971.78
239.758	18946.19
239.829	18897.08
239.901	18870.58
239.973	18839.25
240.044	18799.69
240.116	18765.77
240.188	18724.9
240.259	18695.31
240.331	18643.94
240.403	18617.68
240.474	18555.85
240.546	18518.45
240.618	18463.95
240.689	18414.36
240.761	18387.28
240.833	18376.78
240.904	18334.75
240.976	18293.21
241.048	18267.24
241.119	18238.32
241.191	18218.95
241.262	18215.77
241.334	18173.94
241.405	18140.02
241.477	18104.84
241.549	18069.42
241.62	18036.45
241.692	18009.27
241.763	17980.31
241.835	17953.85
241.906	17909.81
241.978	17856.27
242.049	17838.82
242.121	17817.66
242.192	17809.47
242.264	17755.54
242.335	17695.02
242.407	17668.61
242.478	17623.4
242.55	17587.35
242.621	17538.78
242.693	17496.37
242.764	17445.38
242.836	17417
242.907	17383.6
242.979	17351.36
243.05	17316.51
243.122	17287.98
243.193	17255.36
243.264	17205.96
243.336	17171.11
243.407	17151.98
243.479	17148.9
243.55	17104.75
243.622	17072.56
243.693	17031.64
243.764	17018.05
243.836	16977.23
243.907	16933.71
243.978	16897.13
244.05	16866.28
244.121	16817.36
244.192	16793.36
244.264	16740.35
244.335	16700.44
244.407	16655.96
244.478	16630.03
244.549	16595.23
244.62	16548.43
244.692	16510.31
244.763	16485.68
244.834	16434.54
244.906	16378.01
244.977	16346.54
245.048	16333.19
245.119	16284.89
245.191	16237.9
245.262	16183.2
245.333	16175.48
245.405	16152.93
245.476	16132.25
245.547	16103.86
245.618	16079.33
245.689	16053.25
245.761	16031.8
245.832	16003.08
245.903	15979.89
245.974	15949.58
246.045	15920.71
246.117	15909.28
246.188	15865.47
246.259	15812.59
246.33	15785.36
246.401	15760.97
246.473	15712.92
246.544	15671.08
246.615	15663.08
246.686	15636.76
246.757	15630.45
246.828	15585.33
246.899	15567.5
246.97	15518.52
247.042	15470.9
247.113	15459.91
247.184	15447.14
247.255	15407.56
247.326	15384.86
247.397	15351.6
247.468	15324.56
247.539	15290
247.61	15243.15
247.681	15228.2
247.752	15216.97
247.823	15174.65
247.894	15147.41
247.965	15110.92
248.037	15077.33
248.108	15024.83
248.179	14982.7
248.25	14942.36
248.321	14918.4
248.392	14875.16
248.463	14868.41
248.534	14839.44
248.605	14808.74
248.675	14770.76
248.746	14745.11
248.817	14707.66
248.888	14679.99
248.959	14628.26
249.03	14605.13
249.101	14577.79
249.172	14544.63
249.243	14497.48
249.314	14488.32
249.385	14461.28
249.456	14445.08
249.527	14414.43
249.598	14392.54
249.669	14374.46
249.739	14354.27
249.81	14330.21
249.881	14289.19
249.952	14267.01
250.023	14241.27
250.094	14192.34
250.165	14148.53
250.235	14123.27
250.306	14097.96
250.377	14060.31
250.448	14042.28
250.519	13998.03
250.59	13992.39
250.66	13957.15
250.731	13946.83
250.802	13925.96
250.873	13900.7
250.944	13879.82
251.014	13844.05
251.085	13841.93
251.156	13817.88
251.227	13809.39
251.297	13804.48
251.368	13792.52
251.439	13775.94
251.51	13764.22
251.58	13735.64
251.651	13712.98
251.722	13700.45
251.792	13664.82
251.863	13639.71
251.934	13632.72
252.005	13634.26
252.075	13608.08
252.146	13603.46
252.217	13592.32
252.287	13581.23
252.358	13553.13
252.429	13538.62
252.499	13517.17
252.57	13500.25
252.641	13484
252.711	13454.45
252.782	13402.72
252.852	13399.69
252.923	13372.5
252.994	13346.03
253.064	13337.6
253.135	13298.79
253.205	13269.82
253.276	13267.7
253.347	13260.27
253.417	13230
253.488	13203.34
253.558	13177.12
253.629	13149.06
253.699	13127.46
253.77	13104.04
253.841	13079.4
253.911	13058.24
253.982	13038.91
254.052	13022.33
254.123	13008.68
254.193	12984.73
254.264	13009.7
254.334	12970.79
254.405	12938.45
254.475	12909.19
254.546	12883.11
254.616	12884.89
254.687	12865.03
254.757	12845.36
254.827	12824.01
254.898	12799.18
254.968	12778.65
255.039	12748.37
255.109	12738.25
255.18	12712.08
255.25	12670.28
255.321	12665.17
255.391	12633.5
255.461	12633.98
255.532	12581.58
255.602	12556.28
255.673	12507.25
255.743	12471.58
255.813	12426.32
255.884	12418.75
255.954	12407.18
256.024	12412.34
256.095	12391.27
256.165	12358.5
256.235	12342.3
256.306	12320.61
256.376	12322.54
256.446	12312.41
256.517	12295.88
256.587	12288.12
256.657	12263.97
256.728	12248.79
256.798	12223.48
256.868	12196.2
256.938	12166.74
257.009	12160.62
257.079	12147.46
257.149	12165.44
257.219	12121.19
257.29	12111.7
257.36	12067.79
257.43	12061.95
257.5	12011.73
257.571	11985.6
257.641	11974.9
257.711	11939.52
257.781	11925.93
257.852	11913.78
257.922	11873.87
257.992	11858.88
258.062	11833.19
258.132	11830.49
258.202	11809.14
258.273	11791.11
258.343	11793.96
258.413	11768.56
258.483	11746.58
258.553	11711.68
258.623	11684.16
258.693	11679.92
258.764	11680.64
258.834	11682.13
258.904	11660.44
258.974	11623.58
259.044	11601.94
259.114	11585.74
259.184	11568.68
259.254	11547.62
259.324	11502.02
259.394	11485.39
259.464	11490.31
259.535	11472.09
259.605	11444.38
259.675	11420.96
259.745	11412.28
259.815	11382.16
259.885	11352.28
259.955	11363.17
260.025	11345.92
260.095	11322.21
260.165	11305.58
260.235	11312.37
260.305	11284.57
260.375	11255.07
260.445	11276.52
260.515	11280.47
260.585	11278.06
260.655	11267.17
260.725	11265.38
260.795	11255.5
260.865	11263.94
260.934	11231.36
261.004	11215.79
261.074	11201.53
261.144	11204.03
261.214	11197.57
261.284	11183.36
261.354	11189.48
261.424	11161.09
261.494	11160.9
261.564	11149.62
261.634	11139.79
261.703	11091.98
261.773	11085.72
261.843	11075.79
261.913	11057.57
261.983	11017.29
