Data from 20250703_urea_0.1M_MAYP1162681_15-21-05-518.txt Node
Date: Thu Jul 03 15:21:05 BST 2025
User: adleo
Spectrometer: MAYP116268
Trigger mode: 0
Integration Time (sec): 1.000000E0
Scans to average: 1
Electric dark correction enabled: true
Nonlinearity correction enabled: true
Boxcar width: 10
XAxis mode: Wavelengths
Number of Pixels in Spectrum: 2068
>>>>>Begin Spectral Data<<<<<
179.565	1273.19
179.642	1331.58
179.718	1380.07
179.795	1422.77
179.871	1458.71
179.948	1477.49
180.024	1502.29
180.101	1524.83
180.177	1539.32
180.254	1563.04
180.33	1590.83
180.407	1647.19
180.483	1748.34
180.56	1843.94
180.636	1933.06
180.712	1918.88
180.789	1930.34
180.865	1944.41
180.942	1951.16
181.018	1964.04
181.095	1983.93
181.171	1989.68
181.248	1992.58
181.324	2007.9
181.4	2013.99
181.477	2024.55
181.553	2038.67
181.63	2060.69
181.706	2080.05
181.782	2090.89
181.859	2089.89
181.935	2092.84
182.011	2091.79
182.088	2110.21
182.164	2131.62
182.24	2148.03
182.317	2157.63
182.393	2156.02
182.469	2170.14
182.546	2186.51
182.622	2191.31
182.698	2181.32
182.775	2195.97
182.851	2210.58
182.927	2203.49
183.003	2200.26
183.08	2194.55
183.156	2203.3
183.232	2197.83
183.308	2183.6
183.385	2191.45
183.461	2212.96
183.537	2212.44
183.613	2227.04
183.69	2215.96
183.766	2204.2
183.842	2211.15
183.918	2215.81
183.995	2228.7
184.071	2234.13
184.147	2227.56
184.223	2211.15
184.299	2224.43
184.375	2210.97
184.452	2213.82
184.528	2264.36
184.604	2274.16
184.68	2285.96
184.756	2293.39
184.832	2292.82
184.908	2297.95
184.985	2297.57
185.061	2278.49
185.137	2288.63
185.213	2277.49
185.289	2279.87
185.365	2272.21
185.441	2268.12
185.517	2281.93
185.593	2277.12
185.669	2271.74
185.745	2285.11
185.822	2304.38
185.898	2294.19
185.974	2304.04
186.05	2296.33
186.126	2259.97
186.202	2251.6
186.278	2251.12
186.354	2244.12
186.43	2256.45
186.506	2253.84
186.582	2251.12
186.658	2257.02
186.734	2235.52
186.81	2234.14
186.886	2236.56
186.962	2246.65
187.038	2245.94
187.114	2237.61
187.19	2255.6
187.266	2245.37
187.341	2243.89
187.417	2237.23
187.493	2238.85
187.569	2241.28
187.645	2238.95
187.721	2228.19
187.797	2237.37
187.873	2236.42
187.949	2229.66
188.025	2222.9
188.101	2228.23
188.176	2235.18
188.252	2232.61
188.328	2241.22
188.404	2245.21
188.48	2238.84
188.556	2234.08
188.632	2230.65
188.707	2235.18
188.783	2219.75
188.859	2216.71
188.935	2207.33
189.011	2214.9
189.086	2208.43
189.162	2199.72
189.238	2194.39
189.314	2191.87
189.39	2183.69
189.465	2180.07
189.541	2195.63
189.617	2181.36
189.693	2175.51
189.768	2178.79
189.844	2205.12
189.92	2196.89
189.996	2204.5
190.071	2219.06
190.147	2217.78
190.223	2229.06
190.298	2216.49
190.374	2208.45
190.45	2218.78
190.526	2226.1
190.601	2219.73
190.677	2222.06
190.753	2251.91
190.828	2257.43
190.904	2271.75
190.98	2290.93
191.055	2302.17
191.131	2295.26
191.207	2314.87
191.282	2325.81
191.358	2319.39
191.433	2303.44
191.509	2318.85
191.585	2316.94
191.66	2316.61
191.736	2323.99
191.811	2317.99
191.887	2337.84
191.963	2358.68
192.038	2366.16
192.114	2365.01
192.189	2368.49
192.265	2366.25
192.34	2343.63
192.416	2341.21
192.491	2337.49
192.567	2340.68
192.642	2339.35
192.718	2338.68
192.793	2324.6
192.869	2319.12
192.944	2319.88
193.02	2325.79
193.095	2329.79
193.171	2332.4
193.246	2333.45
193.322	2332.78
193.397	2331.07
193.473	2316.88
193.548	2301.75
193.624	2306.41
193.699	2305.51
193.775	2323.93
193.85	2323.31
193.925	2329.98
194.001	2328.88
194.076	2322.03
194.152	2308.56
194.227	2302.7
194.302	2292.48
194.378	2297.52
194.453	2295
194.529	2305.71
194.604	2291.19
194.679	2282.63
194.755	2266.97
194.83	2277.35
194.905	2276.45
194.981	2286.21
195.056	2280.02
195.131	2287.54
195.207	2286.4
195.282	2277.17
195.357	2256.03
195.433	2273.07
195.508	2262.64
195.583	2273.06
195.659	2289.68
195.734	2298.15
195.809	2296.82
195.884	2306.43
195.96	2308.85
196.035	2326.18
196.11	2323.37
196.185	2335.08
196.261	2340.93
196.336	2370.87
196.411	2357.44
196.486	2361.77
196.561	2354.77
196.637	2362.2
196.712	2378.67
196.787	2381.48
196.862	2396.43
196.937	2409.56
197.013	2414.61
197.088	2428.03
197.163	2449.61
197.238	2466.05
197.313	2467.9
197.388	2483.28
197.464	2519.1
197.539	2529.15
197.614	2518.82
197.689	2533.39
197.764	2553.63
197.839	2575.3
197.914	2569.68
197.989	2591.59
198.065	2606.88
198.14	2657.73
198.215	2682.69
198.29	2694.65
198.365	2709.18
198.44	2718.84
198.515	2747.1
198.59	2767.11
198.665	2790.99
198.74	2798.23
198.815	2801.14
198.89	2821.72
198.965	2852.28
199.04	2844.74
199.115	2860.75
199.19	2910.07
199.265	2910.17
199.34	2921.75
199.415	2954.71
199.49	2975.82
199.565	2987.07
199.64	3011
199.715	3012.72
199.79	3020.87
199.865	3025.3
199.94	3025.83
200.015	3060.78
200.09	3063.21
200.165	3065.45
200.24	3073.79
200.315	3117.61
200.39	3131.34
200.464	3141.88
200.539	3144.7
200.614	3160.34
200.689	3185.52
200.764	3191.25
200.839	3212.55
200.914	3213.75
200.989	3203.44
201.063	3217.22
201.138	3198.11
201.213	3196.06
201.288	3172.35
201.363	3179.46
201.438	3184.04
201.512	3198.77
201.587	3182.69
201.662	3189.99
201.737	3205.02
201.812	3211.84
201.886	3178.33
201.961	3190.55
202.036	3178.67
202.111	3175.05
202.186	3148.35
202.26	3132.32
202.335	3113.15
202.41	3110.05
202.485	3099.18
202.559	3082.68
202.634	3060.36
202.709	3076.8
202.784	3066.17
202.858	3070.65
202.933	3056.2
203.008	3054.53
203.082	3041.09
203.157	3047.38
203.232	3012.16
203.306	2996.23
203.381	2973.81
203.456	2959.84
203.53	2948.67
203.605	2939.76
203.68	2930.08
203.754	2936.84
203.829	2939.52
203.904	2932.22
203.978	2937.85
204.053	2963.22
204.127	2971.85
204.202	2997.6
204.277	3005.76
204.351	3023.12
204.426	3044.54
204.5	3068.96
204.575	3065.24
204.65	3111.57
204.724	3137.78
204.799	3185.51
204.873	3224.45
204.948	3268.4
205.022	3302.99
205.097	3340.43
205.171	3403.95
205.246	3470.48
205.32	3526.98
205.395	3586.35
205.469	3644.4
205.544	3716.03
205.618	3765.05
205.693	3852.65
205.767	3915.36
205.842	4018.83
205.916	4099
205.991	4180.68
206.065	4273.32
206.14	4384.62
206.214	4480.47
206.289	4578.02
206.363	4699.23
206.438	4812.2
206.512	4933.84
206.586	5072.11
206.661	5197.86
206.735	5298.73
206.81	5424.99
206.884	5567.33
206.958	5683.77
207.033	5832.73
207.107	5978.37
207.181	6155.54
207.256	6285.75
207.33	6451.73
207.405	6608.13
207.479	6775
207.553	6931.76
207.628	7065.32
207.702	7228.33
207.776	7374
207.851	7531.79
207.925	7701.58
207.999	7854.97
208.073	8010.6
208.148	8177.81
208.222	8331.86
208.296	8539.48
208.371	8729.23
208.445	8913.52
208.519	9114.6
208.593	9307.55
208.668	9484.62
208.742	9655.79
208.816	9839.01
208.89	10029.8
208.965	10209.55
209.039	10391.84
209.113	10584.49
209.187	10783.14
209.261	10964.68
209.336	11170.19
209.41	11374.21
209.484	11548.67
209.558	11752.57
209.632	11955.9
209.707	12152.5
209.781	12361.96
209.855	12552.55
209.929	12742.57
210.003	12932.29
210.077	13117.1
210.151	13342.26
210.226	13546.5
210.3	13752.38
210.374	13947.75
210.448	14127.94
210.522	14303.88
210.596	14484.17
210.67	14667.29
210.744	14896.83
210.818	15101.31
210.892	15294.36
210.966	15463.06
211.041	15661.51
211.115	15830.21
211.189	16011.54
211.263	16186.64
211.337	16350.37
211.411	16530.97
211.485	16684.76
211.559	16849.45
211.633	17002.04
211.707	17122.09
211.781	17281.71
211.855	17401.08
211.929	17544.03
212.003	17671.41
212.077	17832.46
212.151	17997.28
212.225	18145.57
212.299	18277.95
212.373	18403.49
212.447	18529.89
212.52	18687.96
212.594	18817.4
212.668	18960.96
212.742	19080.08
212.816	19203.98
212.89	19329.33
212.964	19454
213.038	19585.61
213.112	19720.16
213.186	19861.31
213.26	19963.09
213.333	20045.5
213.407	20170.65
213.481	20296.04
213.555	20425.73
213.629	20526.65
213.703	20627.81
213.777	20746.46
213.85	20843.1
213.924	20991.84
213.998	21110.11
214.072	21221.6
214.146	21318.24
214.219	21422.11
214.293	21528.82
214.367	21638.19
214.441	21746.54
214.515	21833.89
214.588	21907.97
214.662	21973.63
214.736	22045.64
214.81	22145.9
214.883	22246.65
214.957	22317.89
215.031	22395.21
215.105	22450.84
215.178	22528.41
215.252	22599.66
215.326	22651.25
215.4	22711.32
215.473	22732.1
215.547	22789.33
215.621	22845.89
215.694	22927.86
215.768	22978.78
215.842	23030.32
215.915	23084.96
215.989	23124.3
216.063	23174.07
216.136	23235.45
216.21	23302.09
216.284	23383.3
216.357	23447.1
216.431	23500.53
216.504	23578.65
216.578	23663.39
216.652	23742.57
216.725	23796.92
216.799	23862.32
216.873	23915.76
216.946	23961.48
217.02	24018.72
217.093	24058.13
217.167	24084.37
217.24	24106.89
217.314	24145.67
217.387	24182.91
217.461	24222.31
217.535	24290.23
217.608	24333.84
217.682	24380.87
217.755	24436.11
217.829	24449.42
217.902	24481.07
217.976	24519.13
218.049	24545.52
218.123	24561.15
218.196	24601.09
218.27	24627.39
218.343	24645.91
218.417	24683.4
218.49	24729.04
218.563	24769.56
218.637	24815.06
218.71	24876.2
218.784	24922.81
218.857	24979.5
218.931	25028.04
219.004	25060.56
219.077	25087.1
219.151	25124.01
219.224	25151.32
219.298	25181.05
219.371	25241.95
219.444	25269.84
219.518	25300.97
219.591	25334.6
219.665	25389.19
219.738	25411.38
219.811	25434.11
219.885	25470.93
219.958	25507.61
220.031	25529.57
220.105	25570.83
220.178	25601.19
220.251	25610.07
220.325	25640.91
220.398	25656.41
220.471	25681.17
220.544	25707.95
220.618	25728.08
220.691	25739.86
220.764	25761.77
220.838	25781.13
220.911	25788.22
220.984	25826.26
221.057	25844.6
221.131	25862.51
221.204	25848.6
221.277	25888.23
221.35	25934.04
221.424	25931.92
221.497	25953.4
221.57	25967.93
221.643	25980.09
221.716	25985.07
221.79	25988.59
221.863	25985.4
221.936	25988.3
222.009	25998.19
222.082	26003.31
222.155	26002.59
222.229	26040.53
222.302	26060.71
222.375	26065.54
222.448	26074.52
222.521	26068.2
222.594	26063.46
222.667	26051.64
222.74	26068.78
222.814	26064.77
222.887	26059.65
222.96	26087.7
223.033	26089.15
223.106	26082.15
223.179	26080.65
223.252	26074.57
223.325	26078.72
223.398	26077.61
223.471	26083.55
223.544	26069.4
223.617	26075.73
223.69	26069.4
223.763	26035.17
223.837	26016.83
223.91	26012.92
223.983	25989.56
224.056	25977.39
224.129	25985.6
224.202	25992.89
224.275	25971.6
224.348	25944.23
224.42	25921.73
224.493	25890.94
224.566	25879.49
224.639	25878.87
224.712	25855.94
224.785	25844.93
224.858	25831.13
224.931	25813.7
225.004	25785.56
225.077	25775.52
225.15	25728.22
225.223	25718.57
225.296	25728.18
225.369	25691.54
225.442	25652.69
225.514	25640.38
225.587	25614.47
225.66	25594.39
225.733	25571.7
225.806	25549.26
225.879	25526.67
225.952	25492.75
226.025	25486.33
226.097	25472.62
226.17	25443.91
226.243	25403.37
226.316	25381.55
226.389	25355.83
226.461	25337.98
226.534	25322.15
226.607	25297.59
226.68	25311.44
226.753	25285.09
226.825	25233.64
226.898	25234.27
226.971	25218.87
227.044	25191.75
227.117	25174.53
227.189	25151.12
227.262	25129.89
227.335	25116.38
227.407	25094.57
227.48	25080.1
227.553	25048.97
227.626	25006.8
227.698	24984.51
227.771	24966.17
227.844	24930.81
227.916	24900.94
227.989	24857.76
228.062	24820.27
228.134	24815.4
228.207	24776.75
228.28	24745.29
228.352	24726.53
228.425	24691.4
228.498	24671.62
228.57	24625.65
228.643	24605.39
228.716	24568.77
228.788	24542.72
228.861	24503.4
228.934	24484.73
229.006	24450.82
229.079	24421.29
229.151	24394.04
229.224	24355.78
229.296	24328.77
229.369	24337.6
229.442	24324.43
229.514	24299.4
229.587	24286.62
229.659	24234.42
229.732	24203.79
229.804	24187.78
229.877	24182.81
229.949	24170.84
230.022	24160.62
230.094	24148.03
230.167	24131.97
230.239	24100.38
230.312	24073.75
230.384	24078.67
230.457	24059.81
230.529	24040.66
230.602	24012.3
230.674	23994.36
230.747	23984.09
230.819	23969.38
230.892	23896.69
230.964	23877.16
231.037	23859.89
231.109	23827.24
231.181	23807.62
231.254	23763.44
231.326	23734.51
231.399	23701.71
231.471	23656.57
231.544	23596.14
231.616	23569.71
231.688	23533.69
231.761	23500.22
231.833	23464.73
231.905	23409.41
231.978	23367.6
232.05	23331.68
232.122	23308.68
232.195	23267.3
232.267	23240.83
232.339	23196.76
232.412	23183.21
232.484	23139.81
232.556	23095.3
232.629	23080.65
232.701	23055.81
232.773	23029.49
232.846	22986.34
232.918	22944.38
232.99	22921.05
233.062	22914.39
233.135	22892.79
233.207	22845.64
233.279	22820.91
233.351	22792.6
233.424	22750.47
233.496	22704.86
233.568	22687.02
233.64	22631.1
233.713	22592.14
233.785	22556.51
233.857	22532.46
233.929	22478.37
234.001	22455.9
234.074	22430.78
234.146	22373.41
234.218	22331.23
234.29	22296.33
234.362	22253.48
234.434	22199.48
234.507	22155.32
234.579	22093.81
234.651	22039.97
234.723	22009.45
234.795	21971.81
234.867	21928.42
234.939	21909.33
235.012	21873.52
235.084	21841.99
235.156	21813.12
235.228	21779.67
235.3	21733.05
235.372	21698.49
235.444	21684.51
235.516	21621.61
235.588	21599.87
235.66	21564.98
235.732	21517.6
235.804	21544.3
235.876	21518.47
235.948	21497.84
236.02	21457.54
236.092	21414.84
236.164	21387.37
236.236	21349.44
236.308	21308.95
236.38	21273.77
236.452	21223.3
236.524	21192.02
236.596	21173.8
236.668	21159.97
236.74	21121.03
236.812	21088.93
236.884	21053.65
236.956	21007.96
237.028	20960.39
237.1	20905.45
237.172	20895.04
237.244	20875.86
237.316	20791.17
237.388	20746.16
237.46	20697.43
237.532	20671.94
237.604	20637.24
237.675	20608.8
237.747	20578.1
237.819	20537.09
237.891	20498.25
237.963	20449.05
238.035	20410.59
238.107	20322.78
238.178	20283.5
238.25	20234.97
238.322	20217.82
238.394	20155.55
238.466	20112.9
238.538	20091.36
238.609	20061.96
238.681	19985.34
238.753	19940.09
238.825	19900.47
238.897	19868.04
238.968	19847.61
239.04	19792.38
239.112	19765.78
239.184	19707.04
239.255	19656.97
239.327	19623.47
239.399	19582.56
239.471	19558.47
239.542	19523.29
239.614	19506.23
239.686	19453.22
239.758	19428.5
239.829	19373.32
239.901	19348.36
239.973	19310.33
240.044	19278.38
240.116	19227.74
240.188	19195.45
240.259	19154.78
240.331	19103.99
240.403	19062.93
240.474	19001.97
240.546	18961.39
240.618	18916.09
240.689	18887.08
240.761	18853.49
240.833	18829.98
240.904	18789.64
240.976	18744.59
241.048	18708.11
241.119	18670.47
241.191	18635.24
241.262	18614.76
241.334	18569.13
241.405	18531.59
241.477	18480.99
241.549	18431.78
241.62	18405.67
241.692	18380.22
241.763	18348.37
241.835	18316.47
241.906	18285.09
241.978	18238.01
242.049	18217.39
242.121	18189.24
242.192	18158.06
242.264	18105.78
242.335	18046.5
242.407	18022.16
242.478	17978.02
242.55	17944.14
242.621	17897.64
242.693	17848.24
242.764	17798.32
242.836	17760.87
242.907	17731.57
242.979	17703.81
243.05	17681.98
243.122	17651.43
243.193	17612.39
243.264	17555.48
243.336	17511.19
243.407	17477.93
243.479	17453.65
243.55	17409.98
243.622	17379.43
243.693	17340.2
243.764	17328.54
243.836	17284.44
243.907	17232.54
243.978	17199.14
244.05	17165.35
244.121	17115.71
244.192	17094.31
244.264	17038.94
244.335	17006.36
244.407	16953.64
244.478	16920.48
244.549	16868.67
244.62	16813.39
244.692	16767.7
244.763	16747.31
244.834	16710.73
244.906	16669.53
244.977	16652.66
245.048	16634.1
245.119	16584.6
245.191	16537.13
245.262	16473.61
245.333	16458.04
245.405	16433.65
245.476	16407.96
245.547	16376.83
245.618	16352.1
245.689	16316.82
245.761	16296.58
245.832	16256.58
245.903	16237.92
245.974	16203.61
246.045	16171.17
246.117	16153.38
246.188	16108.12
246.259	16059.64
246.33	16027.63
246.401	15986.66
246.473	15931.86
246.544	15891.71
246.615	15871.13
246.686	15839.18
246.757	15820.23
246.828	15773.14
246.899	15753.24
246.97	15710.48
247.042	15662.72
247.113	15645.51
247.184	15625.55
247.255	15580.2
247.326	15544.77
247.397	15500.66
247.468	15474.39
247.539	15442.73
247.61	15399.63
247.681	15383.53
247.752	15367.1
247.823	15322.41
247.894	15297.83
247.965	15247.84
248.037	15207.93
248.108	15161.03
248.179	15127
248.25	15099.19
248.321	15074.85
248.392	15030.93
248.463	15023.85
248.534	14999.94
248.605	14974.73
248.675	14940.31
248.746	14926.33
248.817	14912.4
248.888	14892.93
248.959	14847.47
249.03	14834.7
249.101	14800.28
249.172	14763.89
249.243	14706.76
249.314	14690.62
249.385	14659.91
249.456	14649.59
249.527	14626.94
249.598	14598.16
249.669	14564.8
249.739	14542.58
249.81	14522.86
249.881	14473.4
249.952	14434.94
250.023	14404.86
250.094	14361.47
250.165	14327.2
250.235	14294.03
250.306	14260.77
250.377	14226.4
250.448	14206.25
250.519	14149.46
250.59	14142.23
250.66	14116.44
250.731	14110.66
250.802	14090.12
250.873	14071.76
250.944	14042.59
251.014	14003.64
251.085	14011.07
251.156	13998.05
251.227	13981.51
251.297	13968.98
251.368	13964.93
251.439	13953.56
251.51	13936.97
251.58	13899.37
251.651	13870.83
251.722	13855.31
251.792	13811.35
251.863	13777.07
251.934	13770.32
252.005	13777.36
252.075	13749.88
252.146	13735.18
252.217	13722.36
252.287	13708.57
252.358	13674.73
252.429	13672.27
252.499	13637.8
252.57	13605.46
252.641	13599.77
252.711	13562.79
252.782	13520.08
252.852	13512.13
252.923	13484.65
252.994	13462.09
253.064	13454.52
253.135	13428.59
253.205	13401.88
253.276	13399.81
253.347	13396.67
253.417	13363.8
253.488	13336.08
253.558	13310.58
253.629	13290.28
253.699	13274.66
253.77	13256.78
253.841	13239.42
253.911	13223.66
253.982	13207.56
254.052	13201.77
254.123	13172.13
254.193	13161.76
254.264	13176.9
254.334	13144.99
254.405	13107.15
254.475	13075.96
254.546	13054.55
254.616	13037.3
254.687	13013.43
254.757	12996.75
254.827	12966.48
254.898	12946.28
254.968	12918.9
255.039	12885.69
255.109	12869.01
255.18	12830.11
255.25	12778.48
255.321	12758.23
255.391	12717.88
255.461	12718.66
255.532	12666.55
255.602	12640.56
255.673	12593.08
255.743	12562.9
255.813	12510.6
255.884	12506.31
255.954	12489.73
256.024	12475.46
256.095	12454.16
256.165	12425.09
256.235	12411.01
256.306	12384.98
256.376	12382.67
256.446	12376.07
256.517	12360.59
256.587	12346.52
256.657	12335.82
256.728	12325.26
256.798	12307.04
256.868	12284.09
256.938	12257.63
257.009	12250.74
257.079	12242.25
257.149	12261.29
257.219	12215.5
257.29	12216.42
257.36	12174.91
257.43	12171.39
257.5	12133.17
257.571	12106.71
257.641	12096.01
257.711	12058.8
257.781	12050.79
257.852	12028.33
257.922	11991.89
257.992	11969.96
258.062	11952.08
258.132	11938.63
258.202	11918.77
258.273	11906.77
258.343	11907.73
258.413	11878.96
258.483	11855.68
258.553	11821.94
258.623	11789.64
258.693	11777.88
258.764	11770.17
258.834	11775.37
258.904	11750.12
258.974	11729.73
259.044	11714.21
259.114	11698.98
259.184	11688.52
259.254	11671.99
259.324	11641.57
259.394	11627.64
259.464	11642.39
259.535	11615.93
259.605	11595.26
259.675	11567.25
259.745	11542.29
259.815	11511.06
259.885	11485.8
259.955	11493.42
260.025	11468.6
260.095	11436.74
260.165	11423.97
260.235	11422.76
260.305	11387.82
260.375	11361.99
260.445	11371.48
260.515	11373.12
260.585	11367.97
260.655	11353.17
260.725	11348.59
260.795	11329.27
260.865	11333.7
260.934	11298.47
261.004	11296.3
261.074	11276.15
261.144	11282.03
261.214	11280.88
261.284	11268.39
261.354	11270.95
261.424	11244.34
261.494	11247.62
261.564	11244.01
261.634	11236.05
261.703	11196.58
261.773	11184.05
261.843	11172.2
