Data from 20250703_urea_0.1M_MAYP1162681_01-21-05-651.txt Node
Date: Fri Jul 04 01:21:05 BST 2025
User: adleo
Spectrometer: MAYP116268
Trigger mode: 0
Integration Time (sec): 1.000000E0
Scans to average: 1
Electric dark correction enabled: true
Nonlinearity correction enabled: true
Boxcar width: 10
XAxis mode: Wavelengths
Number of Pixels in Spectrum: 2068
>>>>>Begin Spectral Data<<<<<
179.565	1341.94
179.642	1404.13
179.718	1451.07
179.795	1495.22
179.871	1533.49
179.948	1553.18
180.024	1578.61
180.101	1603.37
180.177	1620.79
180.254	1646.56
180.33	1672.16
180.407	1738.89
180.483	1845.56
180.56	1948.43
180.636	2042.45
180.712	2027.22
180.789	2041.25
180.865	2054.76
180.942	2062.36
181.018	2074.45
181.095	2088.05
181.171	2093.38
181.248	2096.9
181.324	2114.36
181.4	2122.59
181.477	2132.34
181.553	2146.47
181.63	2167.5
181.706	2184.82
181.782	2192.85
181.859	2188.67
181.935	2193.71
182.011	2188
182.088	2204.75
182.164	2225.17
182.24	2240.68
182.317	2254.29
182.393	2248.29
182.469	2260.9
182.546	2277.27
182.622	2281.46
182.698	2276.75
182.775	2286.93
182.851	2299.21
182.927	2290.93
183.003	2287.07
183.08	2284.08
183.156	2294.02
183.232	2288.36
183.308	2277.17
183.385	2286.45
183.461	2309.96
183.537	2311.82
183.613	2325.67
183.69	2315.82
183.766	2304.01
183.842	2310.15
183.918	2314.19
183.995	2330.09
184.071	2336.61
184.147	2331.42
184.223	2318.77
184.299	2329.62
184.375	2316.77
184.452	2326.25
184.528	2381.62
184.604	2390.57
184.68	2400.89
184.756	2410.99
184.832	2417.41
184.908	2420.65
184.985	2419.56
185.061	2401.94
185.137	2410.08
185.213	2396.85
185.289	2399.8
185.365	2388.62
185.441	2388
185.517	2402.48
185.593	2400.67
185.669	2397.86
185.745	2408.57
185.822	2427.75
185.898	2421.03
185.974	2432.69
186.05	2420.84
186.126	2382.36
186.202	2377.22
186.278	2373.32
186.354	2360.89
186.43	2367.99
186.506	2368.18
186.582	2366.85
186.658	2371.65
186.734	2350.05
186.81	2355.85
186.886	2356.8
186.962	2371.22
187.038	2368.84
187.114	2358.22
187.19	2363.89
187.266	2353.18
187.341	2354.13
187.417	2345.99
187.493	2344.47
187.569	2347.33
187.645	2340.95
187.721	2327.43
187.797	2335.71
187.873	2343.47
187.949	2341.04
188.025	2332.85
188.101	2336.23
188.176	2343.32
188.252	2341.23
188.328	2351.17
188.404	2347.6
188.48	2346.75
188.556	2340.22
188.632	2337.37
188.707	2341.18
188.783	2338.94
188.859	2331.19
188.935	2318.95
189.011	2329.14
189.086	2321.43
189.162	2313.43
189.238	2312.91
189.314	2312.91
189.39	2305.44
189.465	2291.73
189.541	2306.06
189.617	2292.07
189.693	2284.79
189.768	2288.79
189.844	2314.5
189.92	2306.84
189.996	2318.36
190.071	2325.74
190.147	2325.74
190.223	2335.07
190.298	2323.55
190.374	2310.12
190.45	2322.21
190.526	2332.44
190.601	2324.49
190.677	2332.11
190.753	2364.73
190.828	2365.64
190.904	2382.4
190.98	2397.63
191.055	2412.39
191.131	2404.72
191.207	2427.57
191.282	2438.27
191.358	2425.47
191.433	2409.61
191.509	2420.08
191.585	2415.27
191.66	2416.94
191.736	2425.31
191.811	2419.22
191.887	2437.98
191.963	2463.4
192.038	2470.73
192.114	2470.78
192.189	2476.88
192.265	2469.74
192.34	2444.16
192.416	2446.58
192.491	2439.58
192.567	2441.25
192.642	2442.3
192.718	2440.77
192.793	2427.97
192.869	2423.97
192.944	2426.35
193.02	2434.82
193.095	2441.35
193.171	2447.39
193.246	2447.3
193.322	2443.73
193.397	2442.92
193.473	2428.34
193.548	2407.96
193.624	2416.49
193.699	2415.35
193.775	2433.78
193.85	2436.73
193.925	2445.78
194.001	2445.4
194.076	2437.92
194.152	2430.45
194.227	2421.59
194.302	2411.5
194.378	2414.4
194.453	2410.65
194.529	2425.21
194.604	2406.69
194.679	2398.98
194.755	2379.33
194.83	2390.28
194.905	2385.81
194.981	2393.66
195.056	2386.71
195.131	2393.05
195.207	2388.43
195.282	2376.72
195.357	2352.05
195.433	2367.95
195.508	2356.33
195.583	2362.23
195.659	2376.61
195.734	2383.66
195.809	2386.61
195.884	2395.6
195.96	2396.65
196.035	2414.5
196.11	2410.6
196.185	2428.21
196.261	2434.73
196.336	2468.44
196.411	2455.96
196.486	2465.58
196.561	2459.67
196.637	2467.19
196.712	2489.49
196.787	2493.39
196.862	2507.82
196.937	2521.15
197.013	2529.24
197.088	2540.29
197.163	2566.16
197.238	2585.08
197.313	2583.41
197.388	2596.56
197.464	2630.33
197.539	2640.38
197.614	2633.81
197.689	2647.77
197.764	2663.21
197.839	2680.73
197.914	2673.54
197.989	2698.27
198.065	2711.65
198.14	2766.76
198.215	2794.92
198.29	2803.84
198.365	2821.9
198.44	2836.76
198.515	2865.93
198.59	2881.04
198.665	2909.07
198.74	2917.36
198.815	2920.37
198.89	2944.82
198.965	2977.19
199.04	2970.81
199.115	2987.63
199.19	3032.77
199.265	3034.34
199.34	3043.83
199.415	3083.28
199.49	3106.49
199.565	3118.66
199.64	3145.41
199.715	3142.64
199.79	3153.7
199.865	3161.77
199.94	3156.66
200.015	3190.01
200.09	3195.26
200.165	3203.41
200.24	3211.9
200.315	3256.26
200.39	3269.52
200.464	3278.68
200.539	3280.02
200.614	3302.1
200.689	3333.36
200.764	3342.76
200.839	3362.88
200.914	3370.56
200.989	3358.58
201.063	3375.28
201.138	3353.11
201.213	3353.83
201.288	3335.27
201.363	3339.85
201.438	3341.09
201.512	3360.78
201.587	3341.08
201.662	3347.18
201.737	3357.73
201.812	3368.52
201.886	3332.56
201.961	3346.35
202.036	3333.14
202.111	3331.52
202.186	3298.24
202.26	3274.75
202.335	3251.75
202.41	3245.22
202.485	3227.14
202.559	3207.87
202.634	3181.88
202.709	3193.46
202.784	3175.57
202.858	3174.9
202.933	3158.59
203.008	3153.44
203.082	3135.46
203.157	3140.7
203.232	3098.84
203.306	3082
203.381	3052.52
203.456	3035.35
203.53	3019.64
203.605	3007.82
203.68	2987.07
203.754	2988.69
203.829	2985.93
203.904	2973.58
203.978	2975.01
204.053	2991.08
204.127	2990.84
204.202	3004.67
204.277	3004.34
204.351	3012.83
204.426	3023.18
204.5	3035.24
204.575	3021.18
204.65	3056.11
204.724	3072.52
204.799	3105.13
204.873	3128.22
204.948	3155.22
205.022	3172.25
205.097	3195.84
205.171	3244.74
205.246	3295.29
205.32	3334.49
205.395	3375.65
205.469	3408.56
205.544	3457.51
205.618	3489.69
205.693	3555.97
205.767	3592.69
205.842	3672.76
205.916	3722.86
205.991	3770.2
206.065	3831.69
206.14	3911.01
206.214	3968.16
206.289	4026.83
206.363	4112.11
206.438	4187.1
206.512	4265.49
206.586	4365.06
206.661	4446.14
206.735	4503.87
206.81	4584.02
206.884	4683.06
206.958	4751.98
207.033	4857.84
207.107	4953.22
207.181	5082.24
207.256	5165.51
207.33	5281.78
207.405	5391.8
207.479	5511.25
207.553	5623.93
207.628	5707.32
207.702	5820.63
207.776	5921.16
207.851	6028.62
207.925	6151
207.999	6254.85
208.073	6358.42
208.148	6466.97
208.222	6569.34
208.296	6718.75
208.371	6851.89
208.445	6979.76
208.519	7127.28
208.593	7261.3
208.668	7376.02
208.742	7496.35
208.816	7614.87
208.89	7748.65
208.965	7861.74
209.039	7985.25
209.113	8120.99
209.187	8270.83
209.261	8389.45
209.336	8530.86
209.41	8676.24
209.484	8802.3
209.558	8945.25
209.632	9085.11
209.707	9220.53
209.781	9366.26
209.855	9498.3
209.929	9641.55
210.003	9773.65
210.077	9892.7
210.151	10062.42
210.226	10230.64
210.3	10377.21
210.374	10534.59
210.448	10653.69
210.522	10780.94
210.596	10911.99
210.67	11039.78
210.744	11206.95
210.818	11359.75
210.892	11503.27
210.966	11617.29
211.041	11745.2
211.115	11861.16
211.189	12001.41
211.263	12136.08
211.337	12256.24
211.411	12389.47
211.485	12492.82
211.559	12613.37
211.633	12730.31
211.707	12806.71
211.781	12919.71
211.855	12996.64
211.929	13091.17
212.003	13189.32
212.077	13308.97
212.151	13434.35
212.225	13553.46
212.299	13639.22
212.373	13734.09
212.447	13826.36
212.52	13959.31
212.594	14071.19
212.668	14188.96
212.742	14277.71
212.816	14372.67
212.89	14461.32
212.964	14550.26
213.038	14651.1
213.112	14757.44
213.186	14867.54
213.26	14945.39
213.333	14991.08
213.407	15084.89
213.481	15178.45
213.555	15278.04
213.629	15356.22
213.703	15429.34
213.777	15516.2
213.85	15596.17
213.924	15713.44
213.998	15799.86
214.072	15877.99
214.146	15949.51
214.219	16019.31
214.293	16103.56
214.367	16184.63
214.441	16284.06
214.515	16352.31
214.588	16408.07
214.662	16453.76
214.736	16507.89
214.81	16586.21
214.883	16668.68
214.957	16732.15
215.031	16792.01
215.105	16847.39
215.178	16902.09
215.252	16960.65
215.326	17008.07
215.4	17052.56
215.473	17074.2
215.547	17119.16
215.621	17170.34
215.694	17236.22
215.768	17281.43
215.842	17332.41
215.915	17382.29
215.989	17414.97
216.063	17468.85
216.136	17528.22
216.21	17583.98
216.284	17657.42
216.357	17712.84
216.431	17772.65
216.504	17839.01
216.578	17917.71
216.652	17980.02
216.725	18037.41
216.799	18093.8
216.873	18142.71
216.946	18209.31
217.02	18253.26
217.093	18306.32
217.167	18332.39
217.24	18354.61
217.314	18399.33
217.387	18439.18
217.461	18482.84
217.535	18552.81
217.608	18595.27
217.682	18646.35
217.755	18705.87
217.829	18743.12
217.902	18793.57
217.976	18829.62
218.049	18860.22
218.123	18890.14
218.196	18944.79
218.27	18995.53
218.343	19037.31
218.417	19090.13
218.49	19136.01
218.563	19202.8
218.637	19254.65
218.71	19321.68
218.784	19389.53
218.857	19450.3
218.931	19498.83
219.004	19545
219.077	19582.78
219.151	19624.27
219.224	19662.05
219.298	19711.25
219.371	19772.55
219.444	19813.37
219.518	19865.46
219.591	19914.18
219.665	19981.56
219.738	20024.25
219.811	20051.34
219.885	20100.3
219.958	20153.41
220.031	20191.53
220.105	20245.07
220.178	20288.2
220.251	20323.52
220.325	20375.67
220.398	20419.86
220.471	20464.01
220.544	20513.65
220.618	20551.33
220.691	20599.57
220.764	20642.95
220.838	20681.74
220.911	20708.11
220.984	20761.89
221.057	20800.54
221.131	20839.82
221.204	20847
221.277	20901.22
221.35	20975.06
221.424	21002.92
221.497	21027.88
221.57	21061.38
221.643	21096.8
221.716	21155.22
221.79	21175.12
221.863	21195.42
221.936	21224.48
222.009	21258.17
222.082	21279.86
222.155	21293.26
222.229	21336.73
222.302	21366.32
222.375	21385.99
222.448	21413.03
222.521	21435.83
222.594	21454.58
222.667	21474.87
222.74	21510.44
222.814	21525.09
222.887	21539.79
222.96	21579.7
223.033	21623.28
223.106	21643.71
223.179	21666.56
223.252	21668.2
223.325	21700.11
223.398	21719.29
223.471	21747.49
223.544	21761.42
223.617	21783.01
223.69	21811.21
223.763	21818.01
223.837	21840.33
223.91	21872.77
223.983	21886.07
224.056	21892.48
224.129	21921.93
224.202	21957.46
224.275	21974.09
224.348	21973.65
224.42	21978.23
224.493	21967.24
224.566	21953.07
224.639	21966.66
224.712	21965.07
224.785	21964.88
224.858	21962.33
224.931	21961.7
225.004	21950.76
225.077	21973.03
225.15	21963.24
225.223	21975.63
225.296	22002.58
225.369	21992.07
225.442	21975.1
225.514	21968.59
225.587	21978.04
225.66	21980.4
225.733	21970.38
225.806	21984.94
225.879	21992.99
225.952	21987.97
226.025	22009.04
226.097	22039.84
226.17	22045.87
226.243	22029.58
226.316	22039.94
226.389	22046.3
226.461	22057.24
226.534	22070.69
226.607	22063.46
226.68	22083.95
226.753	22085.88
226.825	22054.3
226.898	22072.23
226.971	22086.02
227.044	22102.8
227.117	22107.18
227.189	22118.17
227.262	22129.69
227.335	22126.56
227.407	22116.68
227.48	22110.46
227.553	22113.88
227.626	22113.06
227.698	22116.05
227.771	22116.63
227.844	22100.96
227.916	22110.99
227.989	22095.04
228.062	22092.96
228.134	22108.58
228.207	22113.79
228.28	22099.62
228.352	22103.04
228.425	22098.65
228.498	22103.23
228.57	22092.05
228.643	22102.27
228.716	22093.06
228.788	22086.41
228.861	22070.89
228.934	22083.71
229.006	22080.67
229.079	22064.47
229.151	22044.61
229.224	22016.22
229.296	22021.09
229.369	22044.66
229.442	22055.17
229.514	22039.65
229.587	22039.02
229.659	22007.69
229.732	21989.85
229.804	21992.84
229.877	22014.05
229.949	22014.58
230.022	22031.84
230.094	22021.09
230.167	22009.28
230.239	21976.17
230.312	21959.2
230.384	21981.33
230.457	21975.16
230.529	21975.83
230.602	21974.92
230.674	21973.61
230.747	21991.11
230.819	21991.79
230.892	21947.82
230.964	21935
231.037	21932.54
231.109	21917.55
231.181	21918.76
231.254	21897.89
231.326	21882.85
231.399	21862.31
231.471	21843.9
231.544	21802.59
231.616	21800.08
231.688	21785.62
231.761	21789.18
231.833	21775.69
231.905	21734.33
231.978	21715.58
232.05	21694.95
232.122	21675.38
232.195	21650.7
232.267	21641.97
232.339	21616.81
232.412	21616.38
232.484	21593.77
232.556	21573.34
232.629	21588.91
232.701	21577.15
232.773	21568.23
232.846	21550.78
232.918	21530.78
232.99	21512.32
233.062	21505.86
233.135	21496.7
233.207	21461.13
233.279	21445.17
233.351	21425.22
233.424	21387.39
233.496	21358.42
233.568	21351.09
233.64	21312.78
233.713	21284.63
233.785	21260.38
233.857	21235.32
233.929	21196.33
234.001	21190.07
234.074	21186.88
234.146	21121.43
234.218	21092.85
234.29	21073.81
234.362	21044.03
234.434	21005.71
234.507	20981.08
234.579	20934.72
234.651	20900.69
234.723	20888.88
234.795	20866.18
234.867	20839.58
234.939	20847.92
235.012	20826.95
235.084	20808.54
235.156	20802.85
235.228	20775.34
235.3	20737.5
235.372	20717.6
235.444	20713.36
235.516	20663.67
235.588	20641.93
235.66	20625.79
235.732	20588.15
235.804	20616.54
235.876	20593.69
235.948	20578.27
236.02	20543.09
236.092	20518.56
236.164	20484.44
236.236	20441.55
236.308	20408.15
236.38	20391
236.452	20342.42
236.524	20313.84
236.596	20298.9
236.668	20283.43
236.74	20260.68
236.812	20242.71
236.884	20225.55
236.956	20195.33
237.028	20153.02
237.1	20109.6
237.172	20098.37
237.244	20095.05
237.316	20024.15
237.388	19992.69
237.46	19957.31
237.532	19941.12
237.604	19899.58
237.675	19886.14
237.747	19877.17
237.819	19840.6
237.891	19804.45
237.963	19767.68
238.035	19725.66
238.107	19645.57
238.178	19618.44
238.25	19586.92
238.322	19569.19
238.394	19518.11
238.466	19477.34
238.538	19454.54
238.609	19430.3
238.681	19375.13
238.753	19325.54
238.825	19293.11
238.897	19263.18
238.968	19255.95
239.04	19208.48
239.112	19202.12
239.184	19158.37
239.255	19119.24
239.327	19087.72
239.399	19060.64
239.471	19041.84
239.542	19025.51
239.614	19024.69
239.686	18963.63
239.758	18946.57
239.829	18899.97
239.901	18878.24
239.973	18847.64
240.044	18819.69
240.116	18772.75
240.188	18737.62
240.259	18710.64
240.331	18667.26
240.403	18648.04
240.474	18589.49
240.546	18549.44
240.618	18489.06
240.689	18453.54
240.761	18415.52
240.833	18401.5
240.904	18364.49
240.976	18323.77
241.048	18287.57
241.119	18257.65
241.191	18221.79
241.262	18193.31
241.334	18156.3
241.405	18126.43
241.477	18081.42
241.549	18055.25
241.62	18040.12
241.692	18017.76
241.763	17985.85
241.835	17947.49
241.906	17908.22
241.978	17864.8
242.049	17847.3
242.121	17835.5
242.192	17816.36
242.264	17774.82
242.335	17723.45
242.407	17699.16
242.478	17665.33
242.55	17633.67
242.621	17589.09
242.693	17554.83
242.764	17508.42
242.836	17469.38
242.907	17435.21
242.979	17407.65
243.05	17371.12
243.122	17332.51
243.193	17287.36
243.264	17232.66
243.336	17196.41
243.407	17173.43
243.479	17160.56
243.55	17131.06
243.622	17097.81
243.693	17063.64
243.764	17037.62
243.836	16987.35
243.907	16950.53
243.978	16914.09
244.05	16885.08
244.121	16833.94
244.192	16817.17
244.264	16767.24
244.335	16732.73
244.407	16678.47
244.478	16656.54
244.549	16612.15
244.62	16569.11
244.692	16538.6
244.763	16523.27
244.834	16491.9
244.906	16440.86
244.977	16404.71
245.048	16379.7
245.119	16333.48
245.191	16278.43
245.262	16233.56
245.333	16219.1
245.405	16181.46
245.476	16149.31
245.547	16117.41
245.618	16096.82
245.689	16066.46
245.761	16048.87
245.832	16018.02
245.903	16001.97
245.974	15970.83
246.045	15943.41
246.117	15928.61
246.188	15886.34
246.259	15845.18
246.33	15809.07
246.401	15774.37
246.473	15721.5
246.544	15688.14
246.615	15672.38
246.686	15648.86
246.757	15632.33
246.828	15590.49
246.899	15574.24
246.97	15531.68
247.042	15493.55
247.113	15475.91
247.184	15455.96
247.255	15412.67
247.326	15387.22
247.397	15350.4
247.468	15317.76
247.539	15281.71
247.61	15236.16
247.681	15221.99
247.752	15195.91
247.823	15155.22
247.894	15129.97
247.965	15096.03
248.037	15055.11
248.108	15002.37
248.179	14967.23
248.25	14929.87
248.321	14912.96
248.392	14866.58
248.463	14860.75
248.534	14832.02
248.605	14806.38
248.675	14775
248.746	14750.46
248.817	14725.3
248.888	14701.97
248.959	14654.01
249.03	14632.84
249.101	14612.21
249.172	14580.93
249.243	14531.03
249.314	14523.56
249.385	14503.99
249.456	14483.94
249.527	14455.3
249.598	14449.09
249.669	14422.57
249.739	14403.29
249.81	14376.44
249.881	14337.49
249.952	14310.35
250.023	14280.8
250.094	14237.61
250.165	14204.73
250.235	14183.96
250.306	14153.78
250.377	14122.59
250.448	14104.03
250.519	14059.05
250.59	14041.75
250.66	14002.65
250.731	14000.72
250.802	13975.71
250.873	13951.27
250.944	13928.17
251.014	13891.73
251.085	13880.74
251.156	13859.53
251.227	13846.27
251.297	13848.54
251.368	13836.97
251.439	13824.87
251.51	13809.49
251.58	13774.54
251.651	13744.56
251.722	13726.86
251.792	13684.25
251.863	13650.12
251.934	13650.89
252.005	13659.38
252.075	13636.48
252.146	13629.58
252.217	13618.3
252.287	13603.94
252.358	13579.79
252.429	13571.4
252.499	13545.03
252.57	13526.18
252.641	13512.68
252.711	13478.94
252.782	13425.24
252.852	13417.04
252.923	13381.75
252.994	13369.08
253.064	13360.83
253.135	13325.16
253.205	13298.6
253.276	13302.16
253.347	13302.36
253.417	13259.98
253.488	13233.18
253.558	13200.45
253.629	13175.77
253.699	13155.81
253.77	13133.88
253.841	13103.41
253.911	13087.65
253.982	13072.46
254.052	13053.95
254.123	13034.72
254.193	13021.65
254.264	13037.56
254.334	13008.25
254.405	12979.57
254.475	12940.57
254.546	12919.21
254.616	12917.96
254.687	12894.24
254.757	12875.15
254.827	12847.82
254.898	12833.84
254.968	12809.26
255.039	12781.88
255.109	12762.35
255.18	12728.37
255.25	12681.75
255.321	12669.17
255.391	12634.51
255.461	12638.66
255.532	12588.53
255.602	12559.8
255.673	12518
255.743	12483.92
255.813	12437.79
255.884	12431.33
255.954	12418.75
256.024	12409.3
256.095	12383.03
256.165	12347.79
256.235	12333.43
256.306	12304.65
256.376	12300.99
256.446	12287.44
256.517	12272.11
256.587	12271.44
256.657	12256.4
256.728	12246.18
256.798	12226.56
256.868	12204.49
256.938	12173.97
257.009	12165.3
257.079	12155.17
257.149	12160.67
257.219	12115.07
257.29	12101.96
257.36	12059.54
257.43	12050.67
257.5	12011.97
257.571	11984.78
257.641	11980.01
257.711	11942.46
257.781	11932.34
257.852	11908.58
257.922	11875.27
257.992	11858.01
258.062	11838.59
258.132	11826.25
258.202	11799.35
258.273	11787.64
258.343	11786.73
258.413	11757.08
258.483	11737.18
258.553	11707.73
258.623	11677.46
258.693	11672.11
258.764	11672.88
258.834	11668.78
258.904	11646.95
258.974	11624.39
259.044	11613.45
259.114	11604.73
259.184	11592.87
259.254	11572.15
259.324	11535.18
259.394	11519.18
259.464	11525.68
259.535	11500.62
259.605	11473.73
259.675	11452.09
259.745	11434.74
259.815	11403.84
259.885	11379.17
259.955	11402.3
260.025	11373.73
260.095	11356.81
260.165	11340.57
260.235	11341.24
260.305	11312.38
260.375	11281.34
260.445	11287.84
260.515	11288.91
260.585	11279.99
260.655	11265.87
260.725	11259.55
260.795	11257.87
260.865	11261.48
260.934	11226.25
261.004	11217.09
261.074	11207.55
261.144	11214.35
261.214	11201.14
261.284	11185.43
261.354	11186.59
261.424	11143.88
261.494	11149.67
261.564	11134.25
261.634	11124.99
261.703	11085.33
261.773	11081.09
261.843	11078.34
