Data from 20250703_urea_0.1M_MAYP1162681_13-11-05-160.txt Node
Date: Thu Jul 03 13:11:05 BST 2025
User: adleo
Spectrometer: MAYP116268
Trigger mode: 0
Integration Time (sec): 1.000000E0
Scans to average: 1
Electric dark correction enabled: true
Nonlinearity correction enabled: true
Boxcar width: 10
XAxis mode: Wavelengths
Number of Pixels in Spectrum: 2068
>>>>>Begin Spectral Data<<<<<
179.565	1208.78
179.642	1263.36
179.718	1305.63
179.795	1341.5
179.871	1374.25
179.948	1389.69
180.024	1409.88
180.101	1431.49
180.177	1446.15
180.254	1468.87
180.33	1488.39
180.407	1541.61
180.483	1636.91
180.56	1725.28
180.636	1809.13
180.712	1798.33
180.789	1807.55
180.865	1818.77
180.942	1825.42
181.018	1834.4
181.095	1848.81
181.171	1852.52
181.248	1855.09
181.324	1870.54
181.4	1880.52
181.477	1891.22
181.553	1906.14
181.63	1927.4
181.706	1944.99
181.782	1951.79
181.859	1951.41
181.935	1960.25
182.011	1957.44
182.088	1973.37
182.164	1993.02
182.24	2005.85
182.317	2014.84
182.393	2014.79
182.469	2031.1
182.546	2047.22
182.622	2052.74
182.698	2045.7
182.775	2057.59
182.851	2070.86
182.927	2061.87
183.003	2054.36
183.08	2047.27
183.156	2055.74
183.232	2048.98
183.308	2036.57
183.385	2044.8
183.461	2062.78
183.537	2063.16
183.613	2077.14
183.69	2069.01
183.766	2060.16
183.842	2067.91
183.918	2075.85
183.995	2088.93
184.071	2092.17
184.147	2082.75
184.223	2070.72
184.299	2087.04
184.375	2077.62
184.452	2084.71
184.528	2136.66
184.604	2149.41
184.68	2162.34
184.756	2171.62
184.832	2178.23
184.908	2183.99
184.985	2184.13
185.061	2167.86
185.137	2176.42
185.213	2163.01
185.289	2164.77
185.365	2158.11
185.441	2156.54
185.517	2164.73
185.593	2159.78
185.669	2156.45
185.745	2166.72
185.822	2185.22
185.898	2173.66
185.974	2179.75
186.05	2172.61
186.126	2139.78
186.202	2131.94
186.278	2127.75
186.354	2116.43
186.43	2122.85
186.506	2120.14
186.582	2121.66
186.658	2127.32
186.734	2108.58
186.81	2113.1
186.886	2116.62
186.962	2129.18
187.038	2128.32
187.114	2121.04
187.19	2130.46
187.266	2120.8
187.341	2123.76
187.417	2116.43
187.493	2117.52
187.569	2121.19
187.645	2114.81
187.721	2103.35
187.797	2111.53
187.873	2116.71
187.949	2109.96
188.025	2104.06
188.101	2105.44
188.176	2111.14
188.252	2107.77
188.328	2114.14
188.404	2111.76
188.48	2108.67
188.556	2101.58
188.632	2099.06
188.707	2102.25
188.783	2096.44
188.859	2089.41
188.935	2078.04
189.011	2084.79
189.086	2078.28
189.162	2071.57
189.238	2068.15
189.314	2063.91
189.39	2057.25
189.465	2048.93
189.541	2065.96
189.617	2051.55
189.693	2047.89
189.768	2050.69
189.844	2073.87
189.92	2065.07
189.996	2073.49
190.071	2079.29
190.147	2078.25
190.223	2088.57
190.298	2078.06
190.374	2065.6
190.45	2077.91
190.526	2086.76
190.601	2081.62
190.677	2083.1
190.753	2108.13
190.828	2111.84
190.904	2126.78
190.98	2144.43
191.055	2157.65
191.131	2151.51
191.207	2172.59
191.282	2182.81
191.358	2171.68
191.433	2158.69
191.509	2174.47
191.585	2171.29
191.66	2173.95
191.736	2180.94
191.811	2171
191.887	2188.65
191.963	2212.97
192.038	2220.2
192.114	2219.86
192.189	2225.19
192.265	2224.33
192.34	2203.73
192.416	2204.39
192.491	2200.44
192.567	2201.06
192.642	2203.39
192.718	2201.49
192.793	2189.21
192.869	2185.84
192.944	2188.88
193.02	2199.49
193.095	2204.2
193.171	2209.72
193.246	2208.15
193.322	2207.34
193.397	2210.44
193.473	2196.35
193.548	2176.74
193.624	2183.31
193.699	2182.08
193.775	2196.31
193.85	2195.36
193.925	2204.44
194.001	2201.21
194.076	2194.74
194.152	2187.7
194.227	2180.18
194.302	2171.38
194.378	2176.18
194.453	2175.71
194.529	2188.22
194.604	2169
194.679	2163.57
194.755	2147.59
194.83	2161.78
194.905	2159.35
194.981	2164.44
195.056	2158.64
195.131	2165.63
195.207	2162.49
195.282	2154.64
195.357	2136.27
195.433	2154.3
195.508	2141.98
195.583	2147.69
195.659	2162.39
195.734	2169.39
195.809	2168.72
195.884	2177.85
195.96	2177.71
196.035	2190.65
196.11	2184.51
196.185	2198.36
196.261	2200.02
196.336	2229.52
196.411	2215.29
196.486	2218.14
196.561	2212.67
196.637	2220.85
196.712	2235.08
196.787	2238.27
196.862	2250.83
196.937	2259.06
197.013	2262.68
197.088	2274.15
197.163	2298.9
197.238	2313.05
197.313	2308.67
197.388	2321.8
197.464	2354.66
197.539	2362.75
197.614	2354.51
197.689	2370.36
197.764	2385.74
197.839	2407.64
197.914	2402.45
197.989	2424.54
198.065	2441.92
198.14	2490.89
198.215	2521.12
198.29	2536.8
198.365	2548.32
198.44	2561.51
198.515	2592.18
198.59	2607.18
198.665	2631.18
198.74	2638.19
198.815	2641.38
198.89	2666.86
198.965	2698.88
199.04	2692.21
199.115	2714.45
199.19	2759.23
199.265	2757.27
199.34	2765.99
199.415	2796.22
199.49	2819.61
199.565	2828.47
199.64	2850.44
199.715	2850.06
199.79	2851.63
199.865	2858.54
199.94	2857.3
200.015	2889.72
200.09	2894.05
200.165	2903.35
200.24	2914.74
200.315	2957.49
200.39	2971.93
200.464	2978.46
200.539	2974.46
200.614	2990.76
200.689	3014.07
200.764	3021.56
200.839	3046.1
200.914	3057.11
200.989	3049.43
201.063	3061.64
201.138	3047.49
201.213	3048.11
201.288	3028.13
201.363	3036.95
201.438	3036.95
201.512	3055.83
201.587	3036.66
201.662	3043.76
201.737	3053.82
201.812	3062.22
201.886	3032.05
201.961	3042.31
202.036	3032.16
202.111	3033.83
202.186	3005.48
202.26	2987.74
202.335	2967.9
202.41	2961.7
202.485	2943.83
202.559	2927.15
202.634	2904.79
202.709	2916.46
202.784	2903.07
202.858	2908.21
202.933	2895.2
203.008	2895.92
203.082	2882.05
203.157	2890.87
203.232	2853.22
203.306	2841.83
203.381	2823.23
203.456	2807.46
203.53	2798.92
203.605	2791.53
203.68	2785.67
203.754	2797.24
203.829	2798.67
203.904	2794.76
203.978	2803.68
204.053	2825.94
204.127	2838.04
204.202	2862.64
204.277	2874.7
204.351	2894.11
204.426	2921.82
204.5	2948.71
204.575	2948.43
204.65	2998.66
204.724	3031.35
204.799	3083.02
204.873	3126.26
204.948	3169.53
205.022	3211.79
205.097	3256.05
205.171	3325.53
205.246	3390.14
205.32	3454.6
205.395	3524.95
205.469	3590.39
205.544	3672
205.618	3737.64
205.693	3827.81
205.767	3902.65
205.842	4013.62
205.916	4103.54
205.991	4187.28
206.065	4294
206.14	4414.25
206.214	4517.52
206.289	4620.29
206.363	4750.55
206.438	4868.51
206.512	4996.86
206.586	5136.96
206.661	5278.22
206.735	5391.19
206.81	5529.96
206.884	5679.09
206.958	5807.56
207.033	5969.56
207.107	6128.01
207.181	6313.1
207.256	6455.27
207.33	6626.71
207.405	6790.78
207.479	6967.25
207.553	7135.9
207.628	7278.83
207.702	7451.21
207.776	7602.05
207.851	7780.62
207.925	7964.25
207.999	8142.79
208.073	8320.35
208.148	8506.65
208.222	8677.31
208.296	8894.62
208.371	9094.85
208.445	9295.36
208.519	9508.39
208.593	9705.72
208.668	9881.42
208.742	10070.79
208.816	10263.73
208.89	10469.39
208.965	10662.35
209.039	10864.19
209.113	11077.64
209.187	11296.14
209.261	11496.16
209.336	11723.09
209.41	11938.95
209.484	12137.19
209.558	12352.64
209.632	12561.82
209.707	12769.81
209.781	12978.91
209.855	13192.16
209.929	13401.02
210.003	13599.53
210.077	13793.64
210.151	14028.92
210.226	14261.7
210.3	14472.87
210.374	14678.08
210.448	14860.24
210.522	15053.48
210.596	15243.98
210.67	15438.18
210.744	15670.89
210.818	15880.32
210.892	16077.84
210.966	16245.43
211.041	16434.56
211.115	16598.43
211.189	16791.27
211.263	16974.51
211.337	17152.83
211.411	17330.62
211.485	17490.04
211.559	17661.81
211.633	17819.59
211.707	17951.01
211.781	18120.07
211.855	18257.8
211.929	18427.82
212.003	18580.78
212.077	18748.15
212.151	18921.92
212.225	19078.59
212.299	19212.71
212.373	19354
212.447	19494.38
212.52	19663.15
212.594	19811.68
212.668	19973.12
212.742	20103.14
212.816	20244.73
212.89	20384.83
212.964	20515.34
213.038	20655.44
213.112	20804.8
213.186	20951.55
213.26	21067.61
213.333	21137.83
213.407	21265.46
213.481	21381.13
213.555	21512.95
213.629	21618.17
213.703	21720.6
213.777	21842.27
213.85	21947.11
213.924	22092.36
213.998	22207.48
214.072	22318.22
214.146	22409.14
214.219	22516.84
214.293	22624.59
214.367	22720.29
214.441	22833.55
214.515	22928.97
214.588	23009.59
214.662	23076.37
214.736	23151.58
214.81	23249.46
214.883	23359.29
214.957	23436.49
215.031	23518.37
215.105	23579.8
215.178	23663.32
215.252	23743.72
215.326	23801.78
215.4	23862.79
215.473	23907.65
215.547	23962.35
215.621	24017.19
215.694	24105.41
215.768	24154.47
215.842	24208.34
215.915	24267.63
215.989	24295.51
216.063	24358.13
216.136	24415.68
216.21	24472.89
216.284	24552.73
216.357	24619.83
216.431	24680.48
216.504	24746.86
216.578	24831.35
216.652	24899.27
216.725	24953.55
216.799	25007.31
216.873	25056.13
216.946	25108.87
217.02	25140.43
217.093	25188.1
217.167	25225.4
217.24	25254.55
217.314	25302.03
217.387	25349.51
217.461	25391.89
217.535	25469.88
217.608	25490.44
217.682	25533.48
217.755	25590.67
217.829	25623.83
217.902	25660.71
217.976	25687.88
218.049	25713.12
218.123	25734.22
218.196	25779.68
218.27	25808.36
218.343	25834.13
218.417	25877.48
218.49	25911.99
218.563	25959.01
218.637	25999.7
218.71	26051.98
218.784	26092.34
218.857	26127.1
218.931	26158.57
219.004	26184.64
219.077	26201.01
219.151	26238.37
219.224	26257.92
219.298	26279.55
219.371	26320.84
219.444	26324.8
219.518	26359.02
219.591	26387.12
219.665	26437.25
219.738	26458.97
219.811	26471
219.885	26501.08
219.958	26525.17
220.031	26547.33
220.105	26572.3
220.178	26584.52
220.251	26601.56
220.325	26629.48
220.398	26641.21
220.471	26658.45
220.544	26677.33
220.618	26688.97
220.691	26704.76
220.764	26722.77
220.838	26743.77
220.911	26736.38
220.984	26774.39
221.057	26794.62
221.131	26814.08
221.204	26787.76
221.277	26822.63
221.35	26860.1
221.424	26864.06
221.497	26874.16
221.57	26875.61
221.643	26887.68
221.716	26906.95
221.79	26894.93
221.863	26888.74
221.936	26897.05
222.009	26900.48
222.082	26908.25
222.155	26903.38
222.229	26922.45
222.302	26921.2
222.375	26916.37
222.448	26926.51
222.521	26927.33
222.594	26917.67
222.667	26898.5
222.74	26907.19
222.814	26896.18
222.887	26879.95
222.96	26878.74
223.033	26876.57
223.106	26874.06
223.179	26863.92
223.252	26856.48
223.325	26847.21
223.398	26830.93
223.471	26823.5
223.544	26809.88
223.617	26801.72
223.69	26783.32
223.763	26756.37
223.837	26763.33
223.91	26756.18
223.983	26720.88
224.056	26689.3
224.129	26677.9
224.202	26669.16
224.275	26639.47
224.348	26594.61
224.42	26561.82
224.493	26524.89
224.566	26499.73
224.639	26483.84
224.712	26457.09
224.785	26435.21
224.858	26416.72
224.931	26399.53
225.004	26369.16
225.077	26345.65
225.15	26297.28
225.223	26284.15
225.296	26282.26
225.369	26230.75
225.442	26195.5
225.514	26180.78
225.587	26159.83
225.66	26130.33
225.733	26114.59
225.806	26110.53
225.879	26084.66
225.952	26052.71
226.025	26047.98
226.097	26028.09
226.17	26002.07
226.243	25959.3
226.316	25927.24
226.389	25913.44
226.461	25896.73
226.534	25876.61
226.607	25846.39
226.68	25837.27
226.753	25805.07
226.825	25753.47
226.898	25746.86
226.971	25711.72
227.044	25685.99
227.117	25659.79
227.189	25635.65
227.262	25617.22
227.335	25578.22
227.407	25547.86
227.48	25525.86
227.553	25490.19
227.626	25449.55
227.698	25416.88
227.771	25390.19
227.844	25344.54
227.916	25308.64
227.989	25267.42
228.062	25223.41
228.134	25217.33
228.207	25181.58
228.28	25150.21
228.352	25118.75
228.425	25080.34
228.498	25056.07
228.57	25015.73
228.643	25000.29
228.716	24971.1
228.788	24920.53
228.861	24879.71
228.934	24865.23
229.006	24839.76
229.079	24799.62
229.151	24765.02
229.224	24714.81
229.296	24689.14
229.369	24683.69
229.442	24659.32
229.514	24609.63
229.587	24597.09
229.659	24550.34
229.732	24526.17
229.804	24501.33
229.877	24487.82
229.949	24466.11
230.022	24459.16
230.094	24417.2
230.167	24381.79
230.239	24330.51
230.312	24302.87
230.384	24299.78
230.457	24265.15
230.529	24231.82
230.602	24220.39
230.674	24193.71
230.747	24181.12
230.819	24160.38
230.892	24102.02
230.964	24079.69
231.037	24058.08
231.109	24024.32
231.181	23987.71
231.254	23945.12
231.326	23900.85
231.399	23860.19
231.471	23811.14
231.544	23750.85
231.616	23737.83
231.688	23694.52
231.761	23659.17
231.833	23609.41
231.905	23546.42
231.978	23509.67
232.05	23475.19
232.122	23426.53
232.195	23392.39
232.267	23368.18
232.339	23327.77
232.412	23306.46
232.484	23256.26
232.556	23196.28
232.629	23179.4
232.701	23154.32
232.773	23119.46
232.846	23084.17
232.918	23042.6
232.99	23012.37
233.062	22987.39
233.135	22955.62
233.207	22911.99
233.279	22887.88
233.351	22867.63
233.424	22830.31
233.496	22783.31
233.568	22762.77
233.64	22718.51
233.713	22673.04
233.785	22630.62
233.857	22595.32
233.929	22544.27
234.001	22518.09
234.074	22518.72
234.146	22456.28
234.218	22412.8
234.29	22376.4
234.362	22333.79
234.434	22283.99
234.507	22227.35
234.579	22172.39
234.651	22134.69
234.723	22103.89
234.795	22069.37
234.867	22019.53
234.939	21986.27
235.012	21948.57
235.084	21910.2
235.156	21879.06
235.228	21836.07
235.3	21792.44
235.372	21747.9
235.444	21722.12
235.516	21661.23
235.588	21613.32
235.66	21571.15
235.732	21520.54
235.804	21542.57
235.876	21517.74
235.948	21500.2
236.02	21479.42
236.092	21434.84
236.164	21384.33
236.236	21342.93
236.308	21293.53
236.38	21262.92
236.452	21217.86
236.524	21179.83
236.596	21159.39
236.668	21127.24
236.74	21089.36
236.812	21049.65
236.884	21019.91
236.956	20977.31
237.028	20931.81
237.1	20885.11
237.172	20872.87
237.244	20849.88
237.316	20765.63
237.388	20703.65
237.46	20655.26
237.532	20629.43
237.604	20590.2
237.675	20559.5
237.747	20528.8
237.819	20480.9
237.891	20438.92
237.963	20397.96
238.035	20358.78
238.107	20276.32
238.178	20235.31
238.25	20195.94
238.322	20175.7
238.394	20119.36
238.466	20077.19
238.538	20046.3
238.609	20017
238.681	19953
238.753	19906.4
238.825	19861.97
238.897	19833.63
238.968	19797.44
239.04	19743.47
239.112	19728
239.184	19672.53
239.255	19629.26
239.327	19591.86
239.399	19553.98
239.471	19522.42
239.542	19489.84
239.614	19458.76
239.686	19395.44
239.758	19365.66
239.829	19323.88
239.901	19293.76
239.973	19254.29
240.044	19217.18
240.116	19174.44
240.188	19130.25
240.259	19091.99
240.331	19043.41
240.403	19012.76
240.474	18962.31
240.546	18910.45
240.618	18848.19
240.689	18814.08
240.761	18766.61
240.833	18748.3
240.904	18707.96
240.976	18662.28
241.048	18625.32
241.119	18598.43
241.191	18577.32
241.262	18553.27
241.334	18504.65
241.405	18466.14
241.477	18428.89
241.549	18382.2
241.62	18342.54
241.692	18303.84
241.763	18273.05
241.835	18239.6
241.906	18195.41
241.978	18142.26
242.049	18117.82
242.121	18092.33
242.192	18060.19
242.264	18010.84
242.335	17952.24
242.407	17922.89
242.478	17880.24
242.55	17841.06
242.621	17792.97
242.693	17744.82
242.764	17693.69
242.836	17651.76
242.907	17617.02
242.979	17576.2
243.05	17543.19
243.122	17501.55
243.193	17468.92
243.264	17408.54
243.336	17365.26
243.407	17335.14
243.479	17323.53
243.55	17291.96
243.622	17265.36
243.693	17234.56
243.764	17215.57
243.836	17173.69
243.907	17136.49
243.978	17101.3
244.05	17068.19
244.121	17024.19
244.192	17002.6
244.264	16956.14
244.335	16918.98
244.407	16868.14
244.478	16842.98
244.549	16813.05
244.62	16775.36
244.692	16738.73
244.763	16709.86
244.834	16671.55
244.906	16637.04
244.977	16605.62
245.048	16587.11
245.119	16542.29
245.191	16497.47
245.262	16446.33
245.333	16429.46
245.405	16388.83
245.476	16360.35
245.547	16325.35
245.618	16296.77
245.689	16258.89
245.761	16225.25
245.832	16188.38
245.903	16164.28
245.974	16123.6
246.045	16079.59
246.117	16063.45
246.188	16019.1
246.259	15982.76
246.33	15951.29
246.401	15907.91
246.473	15854.45
246.544	15805.92
246.615	15776.23
246.686	15738.44
246.757	15718.29
246.828	15670.09
246.899	15653.27
246.97	15605.16
247.042	15564.24
247.113	15537.39
247.184	15524.19
247.255	15486.25
247.326	15455.36
247.397	15421.47
247.468	15387.97
247.539	15360.83
247.61	15306.75
247.681	15283.9
247.752	15259.13
247.823	15221.38
247.894	15196.08
247.965	15159.1
248.037	15123.15
248.108	15082.75
248.179	15044.24
248.25	15009.97
248.321	14990.49
248.392	14941.9
248.463	14930.29
248.534	14888.59
248.605	14868.44
248.675	14838.22
248.746	14823.76
248.817	14798.35
248.888	14777.91
248.959	14740.8
249.03	14720.36
249.101	14693.22
249.172	14655.81
249.243	14603.27
249.314	14587.89
249.385	14550.73
249.456	14528.36
249.527	14504.45
249.598	14477.74
249.669	14462.51
249.739	14437.78
249.81	14408.62
249.881	14363.69
249.952	14338.19
250.023	14317.51
250.094	14265.78
250.165	14222.16
250.235	14189.19
250.306	14166.48
250.377	14127.48
250.448	14104.54
250.519	14053.44
250.59	14044.33
250.66	14018.54
250.731	14020.85
250.802	13991.45
250.873	13978.86
250.944	13954.28
251.014	13911.47
251.085	13911.23
251.156	13881.82
251.227	13871.03
251.297	13866.69
251.368	13862.16
251.439	13850.49
251.51	13841.38
251.58	13809.03
251.651	13779.58
251.722	13762.27
251.792	13715.27
251.863	13682.88
251.934	13676.27
252.005	13684.32
252.075	13655.59
252.146	13640.41
252.217	13620.83
252.287	13606.08
252.358	13570.75
252.429	13564.58
252.499	13540.18
252.57	13513.43
252.641	13499.64
252.711	13472.89
252.782	13426.18
252.852	13419.67
252.923	13388.53
252.994	13362.78
253.064	13355.7
253.135	13323.06
253.205	13301.42
253.276	13301.37
253.347	13292.5
253.417	13251.28
253.488	13220.86
253.558	13199.12
253.629	13175.16
253.699	13157.33
253.77	13145.04
253.841	13131.35
253.911	13107.43
253.982	13089.79
254.052	13071.95
254.123	13055.23
254.193	13030.55
254.264	13050.55
254.334	13018.25
254.405	12991.88
254.475	12961.56
254.546	12933.31
254.616	12921.79
254.687	12902.61
254.757	12886.36
254.827	12862.69
254.898	12848.23
254.968	12821.53
255.039	12795.59
255.109	12778.04
255.18	12747.63
255.25	12699.04
255.321	12677.78
255.391	12645.09
255.461	12646.06
255.532	12600.22
255.602	12565.17
255.673	12526.66
255.743	12482.55
255.813	12437.38
255.884	12422.53
255.954	12409.61
256.024	12413.47
256.095	12393.95
256.165	12355.77
256.235	12336.39
256.306	12316.15
256.376	12303.08
256.446	12292.53
256.517	12274.31
256.587	12268.33
256.657	12246.45
256.728	12236.95
256.798	12220.99
256.868	12201.18
256.938	12167.59
257.009	12157.99
257.079	12159.25
257.149	12168.84
257.219	12135.72
257.29	12120.83
257.36	12076
257.43	12066.84
257.5	12023.7
257.571	12003.99
257.641	11990.64
257.711	11957.76
257.781	11941.96
257.852	11923.98
257.922	11884.98
257.992	11859.24
258.062	11839.72
258.132	11827.91
258.202	11802.56
258.273	11785.21
258.343	11780.44
258.413	11758.17
258.483	11739.9
258.553	11701.68
258.623	11667.55
258.693	11660.8
258.764	11665.14
258.834	11669.91
258.904	11652.8
258.974	11631.4
259.044	11613.62
259.114	11597.09
259.184	11581.66
259.254	11557.04
259.324	11525.95
259.394	11519.3
259.464	11527.49
259.535	11504.02
259.605	11487.49
259.675	11461.85
259.745	11445.89
259.815	11412.88
259.885	11386.86
259.955	11395.97
260.025	11373.6
260.095	11358.81
260.165	11338.86
260.235	11335.38
260.305	11302.9
260.375	11272.06
260.445	11273.5
260.515	11265.12
260.585	11255.72
260.655	11236.01
260.725	11235.09
260.795	11233.74
260.865	11235.86
260.934	11206.08
261.004	11193.45
261.074	11176.87
261.144	11174.8
261.214	11168.97
261.284	11162.9
261.354	11160.97
261.424	11131.57
261.494	11140.1
261.564	11124.92
261.634	11116.92
261.703	11075.14
261.773	11067.62
