Data from 20250703_urea_0.1M_MAYP1162681_22-31-05-459.txt Node
Date: Thu Jul 03 22:31:05 BST 2025
User: adleo
Spectrometer: MAYP116268
Trigger mode: 0
Integration Time (sec): 1.000000E0
Scans to average: 1
Electric dark correction enabled: true
Nonlinearity correction enabled: true
Boxcar width: 10
XAxis mode: Wavelengths
Number of Pixels in Spectrum: 2068
>>>>>Begin Spectral Data<<<<<
179.565	1374.69
179.642	1440.25
179.718	1494.43
179.795	1536.51
179.871	1576.24
179.948	1595.84
180.024	1621.36
180.101	1646.93
180.177	1665.39
180.254	1693.49
180.33	1717.44
180.407	1785.03
180.483	1892.36
180.56	1996.85
180.636	2092.81
180.712	2078.49
180.789	2088.62
180.865	2101.75
180.942	2112.54
181.018	2123.86
181.095	2140.52
181.171	2148.89
181.248	2149.99
181.324	2167.31
181.4	2178.45
181.477	2190.87
181.553	2207.37
181.63	2230.26
181.706	2247.63
181.782	2252.19
181.859	2252.48
181.935	2260.05
182.011	2255.05
182.088	2272.94
182.164	2294.37
182.24	2310.26
182.317	2319.92
182.393	2321.68
182.469	2335.24
182.546	2348.75
182.622	2354.32
182.698	2347.99
182.775	2359.61
182.851	2375.79
182.927	2366.13
183.003	2361.94
183.08	2355.04
183.156	2365.79
183.232	2360.51
183.308	2349.75
183.385	2362.7
183.461	2380.69
183.537	2382.83
183.613	2401.92
183.69	2393.78
183.766	2380.69
183.842	2388.59
183.918	2397.11
183.995	2409.77
184.071	2416.68
184.147	2410.11
184.223	2396.07
184.299	2410.98
184.375	2396.89
184.452	2403.84
184.528	2456.94
184.604	2467.93
184.68	2478.83
184.756	2486.31
184.832	2492.83
184.908	2499.45
184.985	2499.16
185.061	2479.02
185.137	2489.69
185.213	2475.07
185.289	2478.02
185.365	2470.74
185.441	2468.69
185.517	2482.36
185.593	2478.32
185.669	2476.84
185.745	2490.84
185.822	2509.11
185.898	2500.68
185.974	2512.34
186.05	2504.58
186.126	2467.44
186.202	2459.58
186.278	2456.34
186.354	2445.63
186.43	2454.01
186.506	2447.54
186.582	2443.88
186.658	2452.39
186.734	2429.17
186.81	2430.21
186.886	2429.55
186.962	2445.16
187.038	2443.3
187.114	2433.54
187.19	2444.49
187.266	2429.12
187.341	2428.45
187.417	2422.4
187.493	2420.5
187.569	2422.93
187.645	2415.55
187.721	2401.83
187.797	2410.74
187.873	2416.64
187.949	2409.88
188.025	2401.97
188.101	2410.35
188.176	2419.82
188.252	2416.21
188.328	2423.96
188.404	2423.15
188.48	2421.63
188.556	2414.11
188.632	2412.92
188.707	2414.2
188.783	2408.44
188.859	2405.44
188.935	2392.49
189.011	2401.2
189.086	2396.59
189.162	2387.11
189.238	2384.73
189.314	2382.78
189.39	2376.97
189.465	2368.59
189.541	2386.35
189.617	2368.27
189.693	2359.7
189.768	2362.22
189.844	2388.32
189.92	2379.71
189.996	2391.99
190.071	2404.8
190.147	2404.85
190.223	2414.7
190.298	2405.32
190.374	2391.9
190.45	2404.8
190.526	2415.08
190.601	2409.46
190.677	2411.65
190.753	2443.38
190.828	2447.75
190.904	2464.8
190.98	2478.9
191.055	2487.8
191.131	2478.89
191.207	2502.27
191.282	2511.98
191.358	2501.03
191.433	2483.78
191.509	2500.2
191.585	2495.11
191.66	2493.44
191.736	2499.82
191.811	2490.11
191.887	2510.49
191.963	2533.11
192.038	2538.87
192.114	2539.87
192.189	2542.87
192.265	2535.45
192.34	2510
192.416	2508.53
192.491	2504.39
192.567	2509.01
192.642	2517.25
192.718	2514.82
192.793	2501.25
192.869	2498.39
192.944	2501.2
193.02	2507.96
193.095	2514.01
193.171	2518.44
193.246	2518.2
193.322	2512.82
193.397	2514.58
193.473	2497.19
193.548	2479.81
193.624	2486.2
193.699	2487.05
193.775	2505.11
193.85	2507.87
193.925	2520.11
194.001	2520.58
194.076	2512.68
194.152	2499.72
194.227	2485.86
194.302	2478.06
194.378	2481.2
194.453	2478.44
194.529	2491.01
194.604	2476.92
194.679	2468.92
194.755	2451.64
194.83	2466.45
194.905	2465.36
194.981	2474.79
195.056	2466.98
195.131	2472.08
195.207	2470.26
195.282	2458.36
195.357	2438.55
195.433	2454.5
195.508	2438.4
195.583	2444.92
195.659	2461.97
195.734	2470.55
195.809	2472.69
195.884	2485.3
195.96	2488.35
196.035	2506.3
196.11	2502.02
196.185	2516.73
196.261	2518.82
196.336	2551.2
196.411	2536.2
196.486	2541.91
196.561	2533.62
196.637	2544.86
196.712	2565.58
196.787	2568.25
196.862	2586.2
196.937	2596.3
197.013	2604.92
197.088	2619.25
197.163	2643.6
197.238	2660.29
197.313	2660.19
197.388	2676.01
197.464	2706.79
197.539	2720.32
197.614	2710.94
197.689	2726.81
197.764	2743.58
197.839	2766.83
197.914	2761.11
197.989	2785.13
198.065	2799.37
198.14	2855.12
198.215	2883.28
198.29	2894.15
198.365	2907.93
198.44	2915.88
198.515	2948.06
198.59	2966.28
198.665	2996.6
198.74	3004.61
198.815	3005.23
198.89	3030.5
198.965	3061.88
199.04	3059.21
199.115	3071.94
199.19	3119.71
199.265	3122.38
199.34	3134.59
199.415	3170.9
199.49	3196.17
199.565	3208.81
199.64	3237.86
199.715	3233.08
199.79	3241.38
199.865	3249.45
199.94	3250.69
200.015	3289.28
200.09	3291.96
200.165	3299.88
200.24	3306.56
200.315	3349.25
200.39	3368.77
200.464	3373.87
200.539	3379.36
200.614	3396.06
200.689	3425.74
200.764	3436.77
200.839	3456.04
200.914	3460.76
200.989	3450.02
201.063	3462.57
201.138	3440.87
201.213	3440.83
201.288	3423.98
201.363	3431.81
201.438	3432.24
201.512	3452.27
201.587	3433.94
201.662	3441.1
201.737	3449.6
201.812	3460.25
201.886	3427.67
201.961	3438.89
202.036	3430.16
202.111	3425.44
202.186	3395.44
202.26	3375.53
202.335	3348.42
202.41	3344.03
202.485	3328.72
202.559	3309.4
202.634	3283.3
202.709	3293.93
202.784	3277.76
202.858	3280.67
202.933	3266.45
203.008	3263.68
203.082	3245.65
203.157	3249.03
203.232	3206.93
203.306	3191.66
203.381	3163.17
203.456	3145.37
203.53	3128.33
203.605	3115.55
203.68	3099.8
203.754	3101.37
203.829	3097.94
203.904	3087.59
203.978	3091.07
204.053	3111.16
204.127	3109.63
204.202	3127.52
204.277	3129.19
204.351	3137.25
204.426	3146.56
204.5	3157.2
204.575	3143.94
204.65	3177.44
204.724	3193.67
204.799	3231.96
204.873	3259.51
204.948	3284.99
205.022	3305.03
205.097	3331.25
205.171	3384.94
205.246	3435.27
205.32	3477.31
205.395	3520.38
205.469	3558.75
205.544	3610.39
205.618	3639.72
205.693	3712.77
205.767	3752.84
205.842	3838.15
205.916	3893.14
205.991	3952.98
206.065	4029.86
206.14	4119.89
206.214	4190.17
206.289	4255.75
206.363	4348.54
206.438	4426.59
206.512	4524.93
206.586	4632.25
206.661	4725.82
206.735	4789.33
206.81	4876.55
206.884	4993.05
206.958	5077.29
207.033	5193.98
207.107	5303.23
207.181	5444.4
207.256	5538.74
207.33	5669.76
207.405	5787.89
207.479	5923.47
207.553	6035.32
207.628	6126.9
207.702	6249.49
207.776	6350.33
207.851	6479.56
207.925	6611.63
207.999	6735.19
208.073	6846.81
208.148	6971.05
208.222	7082.33
208.296	7247.92
208.371	7397
208.445	7530.89
208.519	7692.16
208.593	7839.1
208.668	7966.6
208.742	8098.29
208.816	8232.04
208.89	8382.41
208.965	8516.64
209.039	8658.62
209.113	8819.55
209.187	8978.35
209.261	9102.18
209.336	9266.57
209.41	9422.29
209.484	9561.99
209.558	9723.27
209.632	9880.89
209.707	10035.02
209.781	10198.15
209.855	10350.24
209.929	10511.03
210.003	10652.38
210.077	10784.59
210.151	10972.29
210.226	11137.72
210.3	11303.65
210.374	11461.12
210.448	11588.35
210.522	11726.82
210.596	11864.71
210.67	12004
210.744	12186.14
210.818	12360.47
210.892	12518.67
210.966	12645.63
211.041	12785.18
211.115	12912.15
211.189	13059.22
211.263	13201.67
211.337	13331.72
211.411	13473.16
211.485	13588.95
211.559	13727.2
211.633	13855.14
211.707	13948.41
211.781	14090.14
211.855	14174.5
211.929	14289.71
212.003	14394.41
212.077	14532.56
212.151	14671.87
212.225	14800.43
212.299	14902.38
212.373	15002.93
212.447	15102.86
212.52	15245.15
212.594	15359.97
212.668	15480.52
212.742	15570.56
212.816	15668.89
212.89	15763.51
212.964	15859.33
213.038	15965.9
213.112	16090.44
213.186	16209.3
213.26	16284.54
213.333	16325.99
213.407	16432.31
213.481	16538.54
213.555	16653.83
213.629	16736.29
213.703	16809.16
213.777	16902.03
213.85	16981.12
213.924	17114.96
213.998	17208.5
214.072	17289.03
214.146	17384.79
214.219	17469.17
214.293	17570.14
214.367	17661.32
214.441	17768.5
214.515	17854.23
214.588	17916.98
214.662	17958.28
214.736	18016.16
214.81	18101.31
214.883	18202.71
214.957	18264.68
215.031	18325.55
215.105	18376.58
215.178	18432.43
215.252	18504.24
215.326	18549.97
215.4	18595.22
215.473	18610.59
215.547	18655.27
215.621	18710.97
215.694	18772.9
215.768	18814.63
215.842	18864.17
215.915	18914.19
215.989	18946.72
216.063	18989.08
216.136	19046.81
216.21	19097.41
216.284	19172.92
216.357	19238.31
216.431	19281.88
216.504	19350.84
216.578	19425.24
216.652	19484.81
216.725	19549.96
216.799	19618.15
216.873	19671.5
216.946	19735.78
217.02	19787.06
217.093	19842.24
217.167	19869.94
217.24	19891.78
217.314	19931.24
217.387	19970.13
217.461	20015.14
217.535	20080.59
217.608	20123.58
217.682	20171.38
217.755	20241.21
217.829	20272.68
217.902	20319.28
217.976	20369.36
218.049	20406.9
218.123	20451.04
218.196	20515.38
218.27	20544.83
218.343	20564.54
218.417	20611.24
218.49	20646.03
218.563	20711.96
218.637	20763.44
218.71	20829.99
218.784	20894.05
218.857	20960.65
218.931	21014.48
219.004	21052.12
219.077	21106.97
219.151	21153.48
219.224	21199.42
219.298	21244.63
219.371	21301.93
219.444	21334.32
219.518	21379.58
219.591	21418.81
219.665	21481.52
219.738	21514.69
219.811	21551.27
219.885	21602.65
219.958	21653.07
220.031	21693.84
220.105	21734.57
220.178	21775.93
220.251	21810.49
220.325	21852.77
220.398	21891.67
220.471	21932.64
220.544	21986.29
220.618	22005.48
220.691	22043.03
220.764	22072.67
220.838	22105.36
220.911	22126.81
220.984	22183.74
221.057	22228.52
221.131	22273.21
221.204	22269.69
221.277	22329.23
221.35	22395.71
221.424	22425.65
221.497	22460.21
221.57	22491.88
221.643	22520.23
221.716	22553.3
221.79	22577.07
221.863	22604.79
221.936	22634.69
222.009	22652.19
222.082	22675.09
222.155	22695.91
222.229	22733.57
222.302	22764.62
222.375	22788.67
222.448	22823.05
222.521	22842.62
222.594	22858.15
222.667	22858.01
222.74	22898.94
222.814	22900.38
222.887	22906.75
222.96	22941.85
223.033	22963.02
223.106	22998.36
223.179	23019.62
223.252	23044.75
223.325	23063.74
223.398	23080.57
223.471	23093.06
223.544	23106.22
223.617	23124.3
223.69	23139.11
223.763	23136.74
223.837	23149.18
223.91	23164.23
223.983	23158.39
224.056	23152.27
224.129	23166.49
224.202	23200.1
224.275	23198.27
224.348	23205.4
224.42	23207.33
224.493	23187.08
224.566	23183.95
224.639	23183.51
224.712	23179.51
224.785	23168.32
224.858	23171.12
224.931	23165.86
225.004	23164.08
225.077	23175.12
225.15	23148.31
225.223	23151.98
225.296	23187.18
225.369	23171.61
225.442	23168.91
225.514	23176.52
225.587	23171.56
225.66	23166.64
225.733	23157.14
225.806	23150.2
225.879	23140.22
225.952	23123.53
226.025	23137.95
226.097	23150.25
226.17	23144.65
226.243	23120.88
226.316	23121.27
226.389	23116.25
226.461	23122.96
226.534	23127.25
226.607	23112.54
226.68	23140.94
226.753	23141.81
226.825	23112.15
226.898	23129.8
226.971	23115.09
227.044	23124.83
227.117	23129.9
227.189	23125.8
227.262	23130.43
227.335	23137.32
227.407	23129.85
227.48	23137.56
227.553	23135.92
227.626	23129.08
227.698	23128.64
227.771	23136.5
227.844	23119.43
227.916	23109.31
227.989	23082.3
228.062	23067.6
228.134	23087.61
228.207	23077.96
228.28	23061.38
228.352	23048.07
228.425	23021.02
228.498	23022.27
228.57	22989.97
228.643	22983.75
228.716	22963.88
228.788	22943.06
228.861	22928.69
228.934	22933.12
229.006	22918.46
229.079	22896.77
229.151	22867.36
229.224	22840.45
229.296	22831.24
229.369	22839.68
229.442	22838.43
229.514	22817.31
229.587	22818.61
229.659	22781.44
229.732	22766.11
229.804	22767.79
229.877	22786.31
229.949	22787.23
230.022	22793.45
230.094	22780.96
230.167	22776.81
230.239	22759.55
230.312	22747.4
230.384	22752.66
230.457	22741.72
230.529	22720.12
230.602	22709.32
230.674	22717.95
230.747	22717.03
230.819	22714.62
230.892	22674.51
230.964	22664.67
231.037	22649.34
231.109	22618.78
231.181	22607.35
231.254	22571.05
231.326	22534.89
231.399	22503.31
231.471	22493.77
231.544	22456.5
231.616	22454.67
231.688	22433.79
231.761	22423.14
231.833	22398.17
231.905	22347.74
231.978	22324.12
232.05	22308.06
232.122	22286.32
232.195	22251.66
232.267	22244.77
232.339	22214.01
232.412	22208.9
232.484	22172.41
232.556	22152.26
232.629	22150.62
232.701	22146.38
232.773	22137.65
232.846	22117.02
232.918	22090.17
232.99	22061.97
233.062	22039.99
233.135	22016.8
233.207	21977.18
233.279	21959.24
233.351	21945.12
233.424	21926.27
233.496	21890.84
233.568	21889.69
233.64	21855.71
233.713	21827.94
233.785	21791.06
233.857	21772.51
233.929	21734.04
234.001	21742.19
234.074	21735.34
234.146	21697.94
234.218	21667.57
234.29	21636
234.362	21612.43
234.434	21572.66
234.507	21529.19
234.579	21487.35
234.651	21463.2
234.723	21456.99
234.795	21431.63
234.867	21401.27
234.939	21382.33
235.012	21363.43
235.084	21341.31
235.156	21315.47
235.228	21279.76
235.3	21246.07
235.372	21214.31
235.444	21198.55
235.516	21136.47
235.588	21113.19
235.66	21079.79
235.732	21040.17
235.804	21074.15
235.876	21053.52
235.948	21041.62
236.02	21008.46
236.092	20982.15
236.164	20947.69
236.236	20899.44
236.308	20855.2
236.38	20833.71
236.452	20806.52
236.524	20777.99
236.596	20754.47
236.668	20730.62
236.74	20703.29
236.812	20678.33
236.884	20661.65
236.956	20629.75
237.028	20585.22
237.1	20535.43
237.172	20518.13
237.244	20504.73
237.316	20432
237.388	20392.39
237.46	20349.93
237.532	20342.46
237.604	20299.96
237.675	20280.01
237.747	20265.98
237.819	20229.41
237.891	20192.39
237.963	20152.92
238.035	20111.67
238.107	20036.78
238.178	20022.76
238.25	19984.83
238.322	19974.57
238.394	19909.51
238.466	19867.92
238.538	19844.45
238.609	19823.3
238.681	19775.06
238.753	19734
238.825	19699.59
238.897	19665.47
238.968	19650.82
239.04	19599.55
239.112	19604.32
239.184	19555.02
239.255	19513.91
239.327	19486.25
239.399	19448.66
239.471	19419.85
239.542	19391.08
239.614	19381.87
239.686	19320.91
239.758	19301.59
239.829	19252.29
239.901	19235.33
239.973	19197.5
240.044	19174.56
240.116	19136.59
240.188	19098.08
240.259	19055.48
240.331	19007.63
240.403	18990.52
240.474	18934.67
240.546	18897.66
240.618	18830.05
240.689	18794
240.761	18764.9
240.833	18745.19
240.904	18714.83
240.976	18675.94
241.048	18642.98
241.119	18615.36
241.191	18591.8
241.262	18569.3
241.334	18525.83
241.405	18495.52
241.477	18460.14
241.549	18418.07
241.62	18381.21
241.692	18354.7
241.763	18338.37
241.835	18305.74
241.906	18258.52
241.978	18209.41
242.049	18189.84
242.121	18165.89
242.192	18135.48
242.264	18071.82
242.335	18015.3
242.407	17986.19
242.478	17944.45
242.55	17910
242.621	17859.25
242.693	17815.54
242.764	17768.27
242.836	17737.04
242.907	17698.87
242.979	17676.17
243.05	17642.58
243.122	17615.11
243.193	17572.42
243.264	17514.49
243.336	17480.66
243.407	17453
243.479	17446.54
243.55	17420.95
243.622	17391.21
243.693	17358.88
243.764	17349.04
243.836	17307.69
243.907	17270.25
243.978	17230.29
244.05	17201.38
244.121	17150.63
244.192	17125.71
244.264	17081.28
244.335	17047.35
244.407	16997.03
244.478	16964.36
244.549	16928.26
244.62	16883.01
244.692	16855.97
244.763	16830.86
244.834	16781.94
244.906	16743.96
244.977	16702.56
245.048	16675.38
245.119	16633.64
245.191	16588.2
245.262	16525.97
245.333	16516.96
245.405	16485.92
245.476	16469.1
245.547	16438.02
245.618	16416.13
245.689	16381.72
245.761	16350.87
245.832	16312.12
245.903	16295.93
245.974	16266.58
246.045	16232.45
246.117	16217.08
246.188	16156.83
246.259	16108.39
246.33	16082.46
246.401	16039.47
246.473	16003.12
246.544	15960.13
246.615	15941.96
246.686	15905.04
246.757	15890.63
246.828	15846.28
246.899	15822.76
246.97	15773.36
247.042	15731.95
247.113	15709.11
247.184	15700.24
247.255	15663.41
247.326	15638.45
247.397	15601.77
247.468	15571.4
247.539	15535.68
247.61	15485.51
247.681	15480.2
247.752	15460.78
247.823	15416.38
247.894	15398.79
247.965	15345.62
248.037	15308.56
248.108	15259.73
248.179	15234.32
248.25	15206.37
248.321	15180.19
248.392	15137.24
248.463	15128.86
248.534	15103.07
248.605	15085.14
248.675	15044.17
248.746	15026.57
248.817	15006.38
248.888	14983.58
248.959	14928.48
249.03	14914.26
249.101	14886.88
249.172	14852.41
249.243	14802.52
249.314	14798.33
249.385	14766.85
249.456	14756
249.527	14725.4
249.598	14710.45
249.669	14682.44
249.739	14658.39
249.81	14638.63
249.881	14598.13
249.952	14561.93
250.023	14534.02
250.094	14491.36
250.165	14454.29
250.235	14417.56
250.306	14390.04
250.377	14345.35
250.448	14333.83
250.519	14279.6
250.59	14273.67
250.66	14241.08
250.731	14237.27
250.802	14214.61
250.873	14188.54
250.944	14161.49
251.014	14136.96
251.085	14131.94
251.156	14109.72
251.227	14096.56
251.297	14085.18
251.368	14075.3
251.439	14068.99
251.51	14056.93
251.58	14018.51
251.651	13987.52
251.722	13976.72
251.792	13924.61
251.863	13897.47
251.934	13884.98
252.005	13893.32
252.075	13861.89
252.146	13847.62
252.217	13834.27
252.287	13807.61
252.358	13791.65
252.429	13792.96
252.499	13759.45
252.57	13730.72
252.641	13715.73
252.711	13689.26
252.782	13645.35
252.852	13639.76
252.923	13615.7
252.994	13590.39
253.064	13580.41
253.135	13549.18
253.205	13513.79
253.276	13508.06
253.347	13517.55
253.417	13483.61
253.488	13454.74
253.558	13426.83
253.629	13404.94
253.699	13383.01
253.77	13375.63
253.841	13347.72
253.911	13317.83
253.982	13296.52
254.052	13286.16
254.123	13266.88
254.193	13246.68
254.264	13264.8
254.334	13223.49
254.405	13187.53
254.475	13146.22
254.546	13116.96
254.616	13112.09
254.687	13106.59
254.757	13097.38
254.827	13064.41
254.898	13057.9
254.968	13035.34
255.039	13008.06
255.109	12992.01
255.18	12962.65
255.25	12911.07
255.321	12887.5
255.391	12849.61
255.461	12849.65
255.532	12798.07
255.602	12773.97
255.673	12732.23
255.743	12702.77
255.813	12661.8
255.884	12651
255.954	12645.55
256.024	12646.9
256.095	12628.25
256.165	12584.48
256.235	12561.24
256.306	12541.04
256.376	12525.96
256.446	12512.51
256.517	12496.6
256.587	12486.48
256.657	12469.65
256.728	12457.89
256.798	12450.08
256.868	12430.42
256.938	12406.55
257.009	12398.41
257.079	12388.09
257.149	12395.85
257.219	12351.07
257.29	12341.29
257.36	12292.99
257.43	12281.8
257.5	12239.77
257.571	12212.87
257.641	12205.69
257.711	12178.55
257.781	12165.44
257.852	12147.99
257.922	12110.73
257.992	12094.54
258.062	12073.91
258.132	12058.05
258.202	12036.26
258.273	12011.2
258.343	12013.41
258.413	11984.97
258.483	11964.01
258.553	11931.52
258.623	11899.56
258.693	11889.39
258.764	11895.32
258.834	11901.3
258.904	11880.23
258.974	11854.64
259.044	11836.13
259.114	11825.33
259.184	11804.99
259.254	11784.8
259.324	11742.29
259.394	11733.51
259.464	11734.91
259.535	11707.97
259.605	11687.72
259.675	11659.1
259.745	11645.31
259.815	11614.85
259.885	11580.44
259.955	11595.38
260.025	11566.8
260.095	11551.71
260.165	11541.64
260.235	11538.03
260.305	11509.54
260.375	11480.38
260.445	11489.49
260.515	11485.3
260.585	11487.52
260.655	11478.17
260.725	11470.98
260.795	11461.92
260.865	11465.1
260.934	11438.21
261.004	11433.29
261.074	11422.11
261.144	11422.26
261.214	11415.75
261.284	11400.33
261.354	11406.79
261.424	11379.94
261.494	11391.36
261.564	11378.16
261.634	11364.37
261.703	11321.28
261.773	11315.84
261.843	11305.62
