Data from 20250703_urea_0.1M_MAYP1162681_23-51-05-052.txt Node
Date: Thu Jul 03 23:51:05 BST 2025
User: adleo
Spectrometer: MAYP116268
Trigger mode: 0
Integration Time (sec): 1.000000E0
Scans to average: 1
Electric dark correction enabled: true
Nonlinearity correction enabled: true
Boxcar width: 10
XAxis mode: Wavelengths
Number of Pixels in Spectrum: 2068
>>>>>Begin Spectral Data<<<<<
179.565	1373.9
179.642	1437.67
179.718	1485.72
179.795	1527.33
179.871	1562.72
179.948	1583.65
180.024	1606.69
180.101	1634.27
180.177	1649.65
180.254	1676.92
180.33	1701.22
180.407	1766.57
180.483	1873.05
180.56	1975.59
180.636	2070.37
180.712	2053.33
180.789	2064.27
180.865	2076.87
180.942	2086.76
181.018	2096.75
181.095	2114.31
181.171	2121.26
181.248	2120.64
181.324	2138.96
181.4	2149.76
181.477	2163.41
181.553	2178.02
181.63	2202.62
181.706	2218.6
181.782	2227.45
181.859	2225.07
181.935	2233.26
182.011	2230.12
182.088	2248.1
182.164	2269.29
182.24	2287.46
182.317	2296.45
182.393	2295.26
182.469	2310.78
182.546	2324.05
182.622	2331.81
182.698	2321.62
182.775	2333
182.851	2350.8
182.927	2342.42
183.003	2336.19
183.08	2329.72
183.156	2337.9
183.232	2335.09
183.308	2322.24
183.385	2334
183.461	2352.89
183.537	2354.23
183.613	2369.84
183.69	2361.51
183.766	2348.03
183.842	2354.27
183.918	2361.08
183.995	2375.4
184.071	2378.16
184.147	2373.55
184.223	2362.32
184.299	2374.89
184.375	2365.18
184.452	2371.8
184.528	2423.65
184.604	2434.83
184.68	2447.44
184.756	2456.54
184.832	2461.15
184.908	2468.53
184.985	2465.15
185.061	2447.44
185.137	2454.87
185.213	2440.73
185.289	2440.07
185.365	2436.07
185.441	2433.74
185.517	2445.69
185.593	2439.31
185.669	2437.17
185.745	2450.17
185.822	2466.97
185.898	2460.63
185.974	2471.63
186.05	2462.53
186.126	2427.3
186.202	2422.3
186.278	2419.06
186.354	2408.11
186.43	2413.69
186.506	2410.93
186.582	2412.88
186.658	2422.44
186.734	2399.5
186.81	2405.31
186.886	2408.97
186.962	2422.97
187.038	2419.16
187.114	2412.49
187.19	2426.16
187.266	2417.54
187.341	2418.12
187.417	2411.5
187.493	2411.12
187.569	2413.31
187.645	2407.17
187.721	2395.36
187.797	2400.64
187.873	2402.07
187.949	2397.45
188.025	2389.59
188.101	2390.31
188.176	2396.4
188.252	2391.5
188.328	2401.59
188.404	2399.78
188.48	2395.16
188.556	2384.69
188.632	2383.35
188.707	2386.35
188.783	2379.88
188.859	2373.6
188.935	2361.98
189.011	2370.31
189.086	2364.93
189.162	2356.22
189.238	2355.03
189.314	2349.6
189.39	2343.13
189.465	2337.23
189.541	2355.8
189.617	2341.23
189.693	2338.76
189.768	2338.14
189.844	2362.85
189.92	2354.86
189.996	2363.43
190.071	2376.33
190.147	2378.19
190.223	2389.85
190.298	2378.52
190.374	2361.48
190.45	2373.61
190.526	2381.23
190.601	2373.38
190.677	2373.42
190.753	2400.05
190.828	2402.76
190.904	2421.28
190.98	2439.19
191.055	2451.94
191.131	2441.42
191.207	2463.94
191.282	2474.46
191.358	2466.84
191.433	2452.17
191.509	2465.68
191.585	2464.21
191.66	2467.02
191.736	2472.21
191.811	2461.4
191.887	2482.97
191.963	2511.87
192.038	2517.63
192.114	2516.68
192.189	2521.68
192.265	2519.06
192.34	2495.25
192.416	2494.86
192.491	2491.91
192.567	2493.67
192.642	2494.44
192.718	2493.96
192.793	2480.67
192.869	2475.3
192.944	2477.1
193.02	2485.87
193.095	2490.25
193.171	2494.53
193.246	2489.53
193.322	2486.91
193.397	2487.25
193.473	2471.19
193.548	2451.19
193.624	2458.48
193.699	2459.72
193.775	2475.72
193.85	2477.01
193.925	2487.82
194.001	2485.44
194.076	2478.25
194.152	2468.53
194.227	2461.96
194.302	2451.44
194.378	2454.82
194.453	2450.25
194.529	2463.06
194.604	2445.25
194.679	2437.35
194.755	2416.41
194.83	2433.41
194.905	2433.6
194.981	2443.17
195.056	2436.18
195.131	2442.51
195.207	2441.22
195.282	2430.23
195.357	2410.89
195.433	2424.93
195.508	2413.03
195.583	2421.45
195.659	2432.88
195.734	2442.31
195.809	2440.84
195.884	2453.5
195.96	2453.54
196.035	2471.26
196.11	2469.16
196.185	2483.11
196.261	2487.73
196.336	2523.39
196.411	2505.86
196.486	2510.48
196.561	2503.86
196.637	2512.76
196.712	2530.58
196.787	2533.29
196.862	2548.39
196.937	2560.82
197.013	2567.63
197.088	2576.67
197.163	2598.45
197.238	2617.56
197.313	2615.03
197.388	2629.32
197.464	2658.77
197.539	2672.39
197.614	2664.39
197.689	2677.49
197.764	2695.07
197.839	2717.18
197.914	2708.55
197.989	2733.04
198.065	2748.14
198.14	2804.65
198.215	2832.52
198.29	2843.44
198.365	2861.03
198.44	2874.8
198.515	2904.93
198.59	2922.09
198.665	2955.55
198.74	2966.47
198.815	2969.48
198.89	2994.31
198.965	3031.61
199.04	3026.79
199.115	3044.95
199.19	3092.81
199.265	3097.63
199.34	3109.26
199.415	3148.91
199.49	3175.28
199.565	3185.96
199.64	3212.43
199.715	3210.71
199.79	3218.3
199.865	3228.31
199.94	3224.07
200.015	3258.18
200.09	3262.29
200.165	3270.44
200.24	3275.55
200.315	3324.02
200.39	3340
200.464	3349.12
200.539	3347.06
200.614	3366.91
200.689	3391.48
200.764	3397.79
200.839	3413.67
200.914	3418.82
200.989	3405.69
201.063	3421.49
201.138	3402.89
201.213	3401.7
201.288	3379.79
201.363	3385.71
201.438	3387.29
201.512	3402.64
201.587	3383.08
201.662	3388.99
201.737	3403.88
201.812	3414.58
201.886	3375.79
201.961	3386.29
202.036	3372.22
202.111	3373.03
202.186	3343.56
202.26	3326.57
202.335	3305.76
202.41	3302.9
202.485	3283.11
202.559	3262.74
202.634	3233.68
202.709	3248.7
202.784	3231.48
202.858	3234.49
202.933	3220.22
203.008	3216.64
203.082	3199.04
203.157	3201.91
203.232	3159.85
203.306	3141.91
203.381	3112.09
203.456	3093.25
203.53	3074.72
203.605	3064.47
203.68	3043.2
203.754	3047.72
203.829	3040.85
203.904	3031.13
203.978	3030.79
204.053	3052.25
204.127	3054.07
204.202	3067.47
204.277	3065.8
204.351	3081.16
204.426	3093.71
204.5	3101.29
204.575	3086.65
204.65	3125.16
204.724	3145.68
204.799	3180.73
204.873	3207.98
204.948	3234.79
205.022	3256.78
205.097	3284.91
205.171	3333.63
205.246	3387.25
205.32	3424.61
205.395	3470.64
205.469	3507.86
205.544	3562.31
205.618	3592.54
205.693	3659.07
205.767	3701.82
205.842	3780.71
205.916	3830.97
205.991	3880.14
206.065	3952.45
206.14	4035.09
206.214	4097.42
206.289	4159.69
206.363	4250.69
206.438	4324.61
206.512	4410.05
206.586	4512.43
206.661	4602.67
206.735	4663.43
206.81	4749.84
206.884	4854.37
206.958	4925.28
207.033	5040.63
207.107	5145.01
207.181	5279.38
207.256	5374.76
207.33	5499.47
207.405	5616.27
207.479	5741.37
207.553	5853.71
207.628	5946.35
207.702	6067.85
207.776	6168.18
207.851	6281.1
207.925	6409.15
207.999	6522.93
208.073	6637.96
208.148	6752.46
208.222	6860.88
208.296	7013.64
208.371	7155.34
208.445	7293.31
208.519	7446.26
208.593	7577.97
208.668	7690.96
208.742	7816.56
208.816	7937.82
208.89	8078.87
208.965	8197.81
209.039	8331.04
209.113	8481.44
209.187	8623.78
209.261	8744.32
209.336	8897.79
209.41	9046.33
209.484	9178.79
209.558	9329.58
209.632	9477.25
209.707	9625.13
209.781	9780.24
209.855	9925.41
209.929	10074.76
210.003	10207.71
210.077	10341.24
210.151	10515.8
210.226	10682.12
210.3	10838.25
210.374	10991.31
210.448	11125.23
210.522	11267.87
210.596	11403.44
210.67	11544.06
210.744	11724.89
210.818	11888.79
210.892	12037.29
210.966	12156.43
211.041	12296.79
211.115	12422.98
211.189	12562.09
211.263	12693.68
211.337	12815.54
211.411	12949.31
211.485	13061.05
211.559	13196.5
211.633	13315.96
211.707	13398
211.781	13528.74
211.855	13607.22
211.929	13719.39
212.003	13814.69
212.077	13941.52
212.151	14061.79
212.225	14174.5
212.299	14272.35
212.373	14365.44
212.447	14465.03
212.52	14606.41
212.594	14711.69
212.668	14830.51
212.742	14923.69
212.816	15022.31
212.89	15118.58
212.964	15223.03
213.038	15319.48
213.112	15422.82
213.186	15539.42
213.26	15626.14
213.333	15661.81
213.407	15764.14
213.481	15856.3
213.555	15961.04
213.629	16037.34
213.703	16118.36
213.777	16205.6
213.85	16277.32
213.924	16405.13
213.998	16498.06
214.072	16577.82
214.146	16653.44
214.219	16726.41
214.293	16809.45
214.367	16891.91
214.441	16989.02
214.515	17063.39
214.588	17122.47
214.662	17173.61
214.736	17225.42
214.81	17306.53
214.883	17406.1
214.957	17475.4
215.031	17543.02
215.105	17591.4
215.178	17655.31
215.252	17726.05
215.326	17779.59
215.4	17833.23
215.473	17851.74
215.547	17893.66
215.621	17943.4
215.694	18016.55
215.768	18064.79
215.842	18116.79
215.915	18175
215.989	18209.75
216.063	18254.42
216.136	18306.46
216.21	18363.33
216.284	18437.78
216.357	18497.1
216.431	18556.62
216.504	18620.23
216.578	18698.49
216.652	18763.07
216.725	18814.92
216.799	18878.48
216.873	18930.24
216.946	18989.08
217.02	19042.81
217.093	19092.73
217.167	19126.03
217.24	19152.87
217.314	19195.57
217.387	19233.01
217.461	19274.22
217.535	19336.53
217.608	19385.78
217.682	19439.17
217.755	19501.62
217.829	19534.92
217.902	19590.34
217.976	19630.34
218.049	19669.95
218.123	19696.7
218.196	19742.91
218.27	19789.51
218.343	19813.51
218.417	19860.31
218.49	19907.34
218.563	19957.75
218.637	20014.57
218.71	20088.83
218.784	20148.25
218.857	20214.32
218.931	20269.84
219.004	20320.05
219.077	20369.36
219.151	20407.91
219.224	20440.68
219.298	20480.44
219.371	20536.73
219.444	20566.47
219.518	20615.14
219.591	20656.83
219.665	20736.74
219.738	20782.81
219.811	20811.49
219.885	20866.91
219.958	20908.45
220.031	20941.47
220.105	20992.02
220.178	21033.81
220.251	21066.68
220.325	21106.2
220.398	21143.12
220.471	21192.19
220.544	21234.55
220.618	21270.03
220.691	21312.73
220.764	21360.78
220.838	21400.26
220.911	21435.06
220.984	21480.46
221.057	21525.72
221.131	21567.51
221.204	21558.3
221.277	21616.34
221.35	21678.32
221.424	21710.42
221.497	21756.84
221.57	21793.57
221.643	21835.12
221.716	21868.19
221.79	21883.42
221.863	21910.37
221.936	21933.65
222.009	21959.29
222.082	21989.18
222.155	22002.05
222.229	22038.44
222.302	22065.68
222.375	22092.14
222.448	22125.94
222.521	22152.5
222.594	22168.84
222.667	22170.91
222.74	22215.6
222.814	22229.15
222.887	22242.79
222.96	22275.28
223.033	22292.15
223.106	22310.81
223.179	22338.29
223.252	22363.79
223.325	22388.96
223.398	22406.55
223.471	22421.69
223.544	22442.76
223.617	22455.68
223.69	22479.49
223.763	22482.58
223.837	22506.3
223.91	22529.1
223.983	22522.3
224.056	22519.7
224.129	22527.56
224.202	22561.74
224.275	22560.63
224.348	22566.56
224.42	22574.13
224.493	22556.24
224.566	22563.04
224.639	22584.01
224.712	22581.45
224.785	22577.36
224.858	22577.16
224.931	22577.55
225.004	22580.2
225.077	22584.59
225.15	22568.29
225.223	22570.56
225.296	22610.53
225.369	22602.67
225.442	22590.66
225.514	22590.66
225.587	22596.26
225.66	22607.01
225.733	22605.75
225.806	22615.01
225.879	22603.83
225.952	22593.9
226.025	22612.99
226.097	22630.15
226.17	22628.56
226.243	22607.3
226.316	22615.35
226.389	22621.52
226.461	22628.42
226.534	22635.31
226.607	22624.32
226.68	22653.58
226.753	22652.86
226.825	22613.32
226.898	22620.7
226.971	22615.93
227.044	22628.75
227.117	22633.67
227.189	22637.33
227.262	22647.75
227.335	22646.25
227.407	22642.73
227.48	22636.8
227.553	22632.94
227.626	22621.57
227.698	22611.39
227.771	22605.42
227.844	22583.53
227.916	22576.78
227.989	22560.82
228.062	22540.77
228.134	22569.45
228.207	22552.87
228.28	22545.2
228.352	22544.04
228.425	22537.73
228.498	22546.89
228.57	22527.12
228.643	22538.45
228.716	22524.04
228.788	22502.1
228.861	22492.03
228.934	22504.17
229.006	22497.86
229.079	22482.53
229.151	22462.57
229.224	22435.77
229.296	22437.36
229.369	22457.41
229.442	22474.09
229.514	22453.85
229.587	22461.99
229.659	22426.66
229.732	22425.74
229.804	22424.73
229.877	22442.13
229.949	22451.29
230.022	22453.85
230.094	22444.64
230.167	22421.64
230.239	22397.06
230.312	22391.32
230.384	22404.82
230.457	22392.86
230.529	22387.8
230.602	22387.27
230.674	22376.76
230.747	22381.78
230.819	22381.63
230.892	22327.3
230.964	22297.85
231.037	22296.83
231.109	22284.93
231.181	22272.39
231.254	22233.97
231.326	22214.4
231.399	22193.48
231.471	22156.12
231.544	22120.15
231.616	22117.74
231.688	22112.01
231.761	22087.38
231.833	22068.38
231.905	22017.09
231.978	21991.06
232.05	21962.76
232.122	21945.75
232.195	21925.84
232.267	21932.64
232.339	21909.59
232.412	21921.07
232.484	21907.04
232.556	21879.27
232.629	21889.01
232.701	21883.32
232.773	21872.67
232.846	21849.92
232.918	21832.76
232.99	21827.02
233.062	21810.92
233.135	21791.79
233.207	21759.68
233.279	21753.47
233.351	21731.82
233.424	21709.03
233.496	21684.16
233.568	21692.64
233.64	21647.33
233.713	21624.24
233.785	21590.31
233.857	21573.82
233.929	21522.25
234.001	21518.49
234.074	21520.37
234.146	21466.34
234.218	21441.13
234.29	21416.5
234.362	21383.39
234.434	21335.19
234.507	21288.87
234.579	21239.71
234.651	21202.79
234.723	21179.75
234.795	21153.29
234.867	21124.81
234.939	21115.07
235.012	21094.2
235.084	21072.51
235.156	21057.23
235.228	21026.87
235.3	20988.31
235.372	20958.24
235.444	20949.8
235.516	20883.24
235.588	20848.69
235.66	20815.96
235.732	20776.2
235.804	20815.53
235.876	20800.21
235.948	20793.41
236.02	20769.65
236.092	20748.69
236.164	20730.95
236.236	20697.6
236.308	20657.89
236.38	20641.89
236.452	20602.66
236.524	20575
236.596	20556.25
236.668	20536.83
236.74	20507.05
236.812	20492.15
236.884	20468.15
236.956	20438.71
237.028	20402.08
237.1	20358.42
237.172	20354.37
237.244	20335.63
237.316	20256.73
237.388	20217.69
237.46	20168.78
237.532	20149.74
237.604	20116.49
237.675	20098.03
237.747	20075.05
237.819	20046.04
237.891	19999.53
237.963	19961.75
238.035	19914.67
238.107	19837.37
238.178	19814.48
238.25	19776.46
238.322	19757.37
238.394	19699.93
238.466	19660.94
238.538	19640.17
238.609	19615.64
238.681	19546.06
238.753	19498.11
238.825	19469.67
238.897	19432.57
238.968	19425.15
239.04	19379.7
239.112	19370.93
239.184	19317.78
239.255	19286.12
239.327	19257.35
239.399	19225.74
239.471	19202.12
239.542	19182.32
239.614	19166.17
239.686	19103.33
239.758	19085.65
239.829	19039.05
239.901	19024.45
239.973	18995.87
240.044	18966.48
240.116	18935.92
240.188	18913.66
240.259	18882.1
240.331	18835.3
240.403	18813.52
240.474	18753.67
240.546	18715.26
240.618	18665.14
240.689	18619.27
240.761	18583.7
240.833	18568.23
240.904	18534.41
240.976	18494.46
241.048	18464.87
241.119	18442.75
241.191	18420.39
241.262	18406.65
241.334	18366.61
241.405	18333.36
241.477	18291.24
241.549	18257.99
241.62	18226.66
241.692	18196.11
241.763	18179.34
241.835	18147.77
241.906	18108.35
241.978	18064.07
242.049	18034.43
242.121	18015.06
242.192	18001.13
242.264	17939.4
242.335	17879.16
242.407	17852.02
242.478	17811.06
242.55	17768.46
242.621	17714.63
242.693	17674.39
242.764	17625.91
242.836	17581.67
242.907	17551.79
242.979	17529.43
243.05	17500.66
243.122	17474.25
243.193	17439.98
243.264	17376.47
243.336	17342.15
243.407	17322.39
243.479	17307.26
243.55	17283.26
243.622	17248.75
243.693	17210.39
243.764	17201.86
243.836	17165.19
243.907	17126.92
243.978	17095.4
244.05	17073.28
244.121	17024.6
244.192	17000.6
244.264	16950.57
244.335	16920.89
244.407	16866.43
244.478	16825.22
244.549	16783.29
244.62	16732.35
244.692	16702.13
244.763	16678.71
244.834	16638.08
244.906	16592.05
244.977	16557.21
245.048	16537.11
245.119	16499.13
245.191	16458.64
245.262	16394.54
245.333	16382.01
245.405	16354.83
245.476	16324.9
245.547	16291.54
245.618	16274.05
245.689	16242
245.761	16218.48
245.832	16183.77
245.903	16162.04
245.974	16142.81
246.045	16111.62
246.117	16093.59
246.188	16040.09
246.259	16003.65
246.33	15968.23
246.401	15943.12
246.473	15898.63
246.544	15856.41
246.615	15825.37
246.686	15796.16
246.757	15791.82
246.828	15744.39
246.899	15721.35
246.97	15678.69
247.042	15633.87
247.113	15611.6
247.184	15597.38
247.255	15557.08
247.326	15525.17
247.397	15484.97
247.468	15449.21
247.539	15412.91
247.61	15363.75
247.681	15347.75
247.752	15330.15
247.823	15290
247.894	15255.78
247.965	15212.83
248.037	15175.66
248.108	15125.39
248.179	15088.56
248.25	15050.72
248.321	15033.37
248.392	14998.81
248.463	14992.73
248.534	14963.43
248.605	14940.24
248.675	14910.26
248.746	14889.72
248.817	14870.39
248.888	14846.53
248.959	14798.96
249.03	14779.05
249.101	14757.79
249.172	14726.36
249.243	14670.83
249.314	14665.19
249.385	14634.96
249.456	14621.37
249.527	14593.51
249.598	14586.33
249.669	14565.84
249.739	14541.93
249.81	14516.19
249.881	14461.91
249.952	14424.65
250.023	14400.59
250.094	14356.58
250.165	14317.73
250.235	14281.67
250.306	14257.28
250.377	14212.45
250.448	14190.37
250.519	14142.88
250.59	14130.69
250.66	14095.16
250.731	14094.73
250.802	14062.91
250.873	14041.7
250.944	14018.42
251.014	13989.49
251.085	13981.25
251.156	13954.11
251.227	13946.54
251.297	13931.4
251.368	13924.7
251.439	13920.32
251.51	13908.41
251.58	13871.15
251.651	13829.45
251.722	13826.22
251.792	13782.11
251.863	13759.11
251.934	13751.35
252.005	13769.43
252.075	13736.17
252.146	13725.66
252.217	13710.52
252.287	13695.1
252.358	13668.92
252.429	13662.12
252.499	13633.1
252.57	13614.11
252.641	13600.37
252.711	13579.83
252.782	13540.02
252.852	13542.76
252.923	13512.78
252.994	13488.58
253.064	13485.16
253.135	13461.54
253.205	13422.54
253.276	13418.54
253.347	13420.61
253.417	13392.79
253.488	13361.84
253.558	13345.41
253.629	13315.57
253.699	13294.02
253.77	13276.13
253.841	13249.19
253.911	13229.04
253.982	13212.98
254.052	13194.62
254.123	13178.56
254.193	13147.57
254.264	13165.07
254.334	13123.17
254.405	13091.98
254.475	13057.85
254.546	13030.86
254.616	13026.81
254.687	13018.71
254.757	13001.26
254.827	12968.24
254.898	12950.79
254.968	12919.26
255.039	12882.34
255.109	12876.46
255.18	12837.89
255.25	12789.78
255.321	12782.07
255.391	12745.29
255.461	12745.77
255.532	12690.33
255.602	12664.11
255.673	12622.03
255.743	12594.26
255.813	12551.65
255.884	12538.92
255.954	12528.95
256.024	12529.23
256.095	12511.78
256.165	12472.35
256.235	12453.22
256.306	12429.79
256.376	12424.58
256.446	12414.41
256.517	12406.22
256.587	12396.77
256.657	12388.53
256.728	12379.46
256.798	12359.56
256.868	12336.9
256.938	12307.59
257.009	12303.74
257.079	12292.46
257.149	12302.43
257.219	12256.21
257.29	12238.18
257.36	12198.46
257.43	12187.76
257.5	12144.28
257.571	12122.49
257.641	12114.78
257.711	12085.38
257.781	12074.97
257.852	12051.97
257.922	12010.09
257.992	11990.42
258.062	11958.61
258.132	11942.75
258.202	11920.72
258.273	11896.19
258.343	11901.92
258.413	11875.85
258.483	11851.89
258.553	11810.68
258.623	11781.28
258.693	11769.95
258.764	11774.29
258.834	11775.2
258.904	11753.56
258.974	11729.51
259.044	11703
259.114	11687.05
259.184	11674.95
259.254	11660.49
259.324	11622.85
259.394	11615.04
259.464	11605.45
259.535	11594.36
259.605	11577.69
259.675	11550.84
259.745	11545.64
259.815	11506.6
259.885	11476.52
259.955	11490.84
260.025	11466.12
260.095	11446.16
260.165	11428.09
260.235	11427.9
260.305	11402.64
260.375	11370.59
260.445	11378.5
260.515	11378.25
260.585	11377.24
260.655	11353.53
260.725	11339.65
260.795	11329.87
260.865	11331.84
260.934	11309.82
261.004	11294.88
261.074	11274.64
261.144	11278.64
261.214	11270.83
261.284	11258.68
261.354	11251.17
261.424	11221.48
261.494	11231.69
261.564	11221.23
261.634	11218.68
261.703	11176.08
261.773	11156.8
