Data from 20250703_background_MAYP1162681_11-57-55-545.txt Node
Date: Thu Jul 03 11:57:55 BST 2025
User: adleo
Spectrometer: MAYP116268
Trigger mode: 0
Integration Time (sec): 1.000000E0
Scans to average: 1
Electric dark correction enabled: true
Nonlinearity correction enabled: true
Boxcar width: 10
XAxis mode: Wavelengths
Number of Pixels in Spectrum: 2068
>>>>>Begin Spectral Data<<<<<
179.565	1098.84
179.642	1148.62
179.718	1189.05
179.795	1225.07
179.871	1256.68
179.948	1271.18
180.024	1288.56
180.101	1309.1
180.177	1323.07
180.254	1343.12
180.33	1363.93
180.407	1411.02
180.483	1498.24
180.56	1581.24
180.636	1658.38
180.712	1646.4
180.789	1659.14
180.865	1670.06
180.942	1677.66
181.018	1690.25
181.095	1703.23
181.171	1709.12
181.248	1711.49
181.324	1725.85
181.4	1734.88
181.477	1742.86
181.553	1756.35
181.63	1778.64
181.706	1794.09
181.782	1801.02
181.859	1800.6
181.935	1805.25
182.011	1799.69
182.088	1817.52
182.164	1835.87
182.24	1850.65
182.317	1860.58
182.393	1856.69
182.469	1868.57
182.546	1878.64
182.622	1885.63
182.698	1879.21
182.775	1890.34
182.851	1903.79
182.927	1896.76
183.003	1888.58
183.08	1885.25
183.156	1892.38
183.232	1887.15
183.308	1876.22
183.385	1883.02
183.461	1901.65
183.537	1902.84
183.613	1916.86
183.69	1908.16
183.766	1896.99
183.842	1900.22
183.918	1905.26
183.995	1919.57
184.071	1924.99
184.147	1918.43
184.223	1904.79
184.299	1919.15
184.375	1908.79
184.452	1914.68
184.528	1964.61
184.604	1977.5
184.68	1986.67
184.756	1993.33
184.832	1998.61
184.908	2001.55
184.985	2002.55
185.061	1984.67
185.137	1993.8
185.213	1981.44
185.289	1980.78
185.365	1973.22
185.441	1970.75
185.517	1984.35
185.593	1978.31
185.669	1975.7
185.745	1986.44
185.822	2001.37
185.898	1991.76
185.974	1999.22
186.05	1991.04
186.126	1956
186.202	1948.29
186.278	1945.2
186.354	1938.07
186.43	1944.26
186.506	1943.35
186.582	1940.31
186.658	1947.96
186.734	1927.47
186.81	1931.23
186.886	1934.03
186.962	1945.87
187.038	1945.3
187.114	1934.83
187.19	1943.54
187.266	1932.22
187.341	1935.27
187.417	1930.7
187.493	1927.9
187.569	1934.22
187.645	1927.9
187.721	1915.73
187.797	1921.76
187.873	1923.95
187.949	1918.77
188.025	1913.16
188.101	1917.34
188.176	1925.37
188.252	1919.38
188.328	1928.08
188.404	1927.13
188.48	1922.66
188.556	1917.15
188.632	1916.58
188.707	1917.19
188.783	1911.77
188.859	1911.3
188.935	1900.84
189.011	1908.59
189.086	1906.68
189.162	1896.6
189.238	1897.03
189.314	1895.08
189.39	1892.66
189.465	1889.05
189.541	1903.93
189.617	1888.43
189.693	1883.3
189.768	1884.3
189.844	1910.31
189.92	1903.04
189.996	1912.36
190.071	1923.24
190.147	1922.48
190.223	1930.47
190.298	1921.72
190.374	1911.46
190.45	1920.96
190.526	1930.47
190.601	1924.29
190.677	1927.43
190.753	1954.4
190.828	1958.54
190.904	1973.94
190.98	1986.45
191.055	1996.1
191.131	1988.45
191.207	2006.47
191.282	2015.64
191.358	2007.46
191.433	1994.47
191.509	2008.26
191.585	2004.69
191.66	2004.83
191.736	2012.73
191.811	2003.79
191.887	2021.81
191.963	2044.69
192.038	2050.15
192.114	2048.3
192.189	2049.82
192.265	2047.06
192.34	2024.42
192.416	2018.81
192.491	2013.77
192.567	2016.1
192.642	2016.48
192.718	2017.14
192.793	2005.97
192.869	2003.02
192.944	2004.26
193.02	2008.68
193.095	2011.49
193.171	2017.62
193.246	2019.48
193.322	2017.05
193.397	2018.71
193.473	2004.83
193.548	1985.04
193.624	1989.56
193.699	1989.56
193.775	2007.02
193.85	2006.4
193.925	2015.91
194.001	2018.91
194.076	2013.53
194.152	2002.74
194.227	1994.7
194.302	1984.67
194.378	1988.57
194.453	1985.53
194.529	1999.03
194.604	1986.33
194.679	1978.35
194.755	1958.43
194.83	1970.94
194.905	1968.47
194.981	1977.31
195.056	1969.28
195.131	1978.98
195.207	1977.08
195.282	1966.05
195.357	1945.74
195.433	1959.67
195.508	1948.54
195.583	1953.15
195.659	1966.23
195.734	1973.79
195.809	1975.46
195.884	1982.83
195.96	1982.87
196.035	1994.71
196.11	1991
196.185	2002.75
196.261	2007.88
196.336	2037.41
196.411	2023.28
196.486	2027.32
196.561	2021.09
196.637	2030.93
196.712	2048.35
196.787	2052.72
196.862	2066.7
196.937	2077.59
197.013	2080.83
197.088	2091.91
197.163	2113.17
197.238	2128.03
197.313	2124.17
197.388	2135.49
197.464	2165.8
197.539	2179.69
197.614	2175.41
197.689	2187.64
197.764	2204.53
197.839	2222.18
197.914	2220.04
197.989	2239.51
198.065	2253.02
198.14	2300.01
198.215	2323.95
198.29	2330.8
198.365	2342.23
198.44	2353.69
198.515	2378.59
198.59	2392.68
198.665	2414.19
198.74	2424.76
198.815	2423.48
198.89	2450.85
198.965	2480.85
199.04	2477.28
199.115	2489.84
199.19	2532.45
199.265	2534.79
199.34	2541.41
199.415	2574.9
199.49	2592.42
199.565	2600.04
199.64	2621.94
199.715	2617.7
199.79	2624.99
199.865	2631.85
199.94	2632.09
200.015	2662.53
200.09	2667.24
200.165	2678.15
200.24	2684.91
200.315	2722.97
200.39	2738.55
200.464	2740.97
200.539	2741.21
200.614	2758.12
200.689	2778.42
200.764	2783
200.839	2799.95
200.914	2805.19
200.989	2791.27
201.063	2805.23
201.138	2790.85
201.213	2793.76
201.288	2777.23
201.363	2783.95
201.438	2783.42
201.512	2795.95
201.587	2778.94
201.662	2783.03
201.737	2790.37
201.812	2799.62
201.886	2765.62
201.961	2777.25
202.036	2765.87
202.111	2764.29
202.186	2732.49
202.26	2717.24
202.335	2697.84
202.41	2701.84
202.485	2686.65
202.559	2674.55
202.634	2648.55
202.709	2661.69
202.784	2640.87
202.858	2640.01
202.933	2621.01
203.008	2615.67
203.082	2599.39
203.157	2597.39
203.232	2559.02
203.306	2540.82
203.381	2511.24
203.456	2491.19
203.53	2466.65
203.605	2449.71
203.68	2422.7
203.754	2421.42
203.829	2409.04
203.904	2388.33
203.978	2366.62
204.053	2370.33
204.127	2356.29
204.202	2357.81
204.277	2336.87
204.351	2332.15
204.426	2325.44
204.5	2318.3
204.575	2286.09
204.65	2293.47
204.724	2287.9
204.799	2292.7
204.873	2289.99
204.948	2288.23
205.022	2276.71
205.097	2267.81
205.171	2280.56
205.246	2292.6
205.32	2289.13
205.395	2286.94
205.469	2279.38
205.544	2285.47
205.618	2268.63
205.693	2278.91
205.767	2266.15
205.842	2284.24
205.916	2276.77
205.991	2269.92
206.065	2274.39
206.14	2287.9
206.214	2284.9
206.289	2278.04
206.363	2291.51
206.438	2294.36
206.512	2298.55
206.586	2314.97
206.661	2324.11
206.735	2303.32
206.81	2306.61
206.884	2321.22
206.958	2309.94
207.033	2325.16
207.107	2330.16
207.181	2360.87
207.256	2353.69
207.33	2370.68
207.405	2386.35
207.479	2404.2
207.553	2406.15
207.628	2393.21
207.702	2403.87
207.776	2398.82
207.851	2402.44
207.925	2417.44
207.999	2412.11
208.073	2412.06
208.148	2412.73
208.222	2400.92
208.296	2432.94
208.371	2444.28
208.445	2456.52
208.519	2484.27
208.593	2494.36
208.668	2488.46
208.742	2491.65
208.816	2494.7
208.89	2507.32
208.965	2503.89
209.039	2510.51
209.113	2528.79
209.187	2544.26
209.261	2543.59
209.336	2560.02
209.41	2577.78
209.484	2577.88
209.558	2601.74
209.632	2612.6
209.707	2625.46
209.781	2648.27
209.855	2659.09
209.929	2675.92
210.003	2679.63
210.077	2678.54
210.151	2722.68
210.226	2752.32
210.3	2779.41
210.374	2798.7
210.448	2801.94
210.522	2811.71
210.596	2824.06
210.67	2834.68
210.744	2881.2
210.818	2907.69
210.892	2929.47
210.966	2927.04
211.041	2941.39
211.115	2935.48
211.189	2957.93
211.263	2971.18
211.337	2974.37
211.411	2989.29
211.485	2984.24
211.559	2995.01
211.633	2994.63
211.707	2963.82
211.781	2976.46
211.855	2940.36
211.929	2931.88
212.003	2913.88
212.077	2919.65
212.151	2930.23
212.225	2936.91
212.299	2924.65
212.373	2916.31
212.447	2908.87
212.52	2934.42
212.594	2937.43
212.668	2947.29
212.742	2933.42
212.816	2928.13
212.89	2923.94
212.964	2919.26
213.038	2916.59
213.112	2929.37
213.186	2942.81
213.26	2924.42
213.333	2878.1
213.407	2880.1
213.481	2883.48
213.555	2894.43
213.629	2882.7
213.703	2862.44
213.777	2861.16
213.85	2841.85
213.924	2866.93
213.998	2867.26
214.072	2858.01
214.146	2837.66
214.219	2832.42
214.293	2825.98
214.367	2825.08
214.441	2829.18
214.515	2817.31
214.588	2792.67
214.662	2751.27
214.736	2727.59
214.81	2729.35
214.883	2733.45
214.957	2720.97
215.031	2706.26
215.105	2679.93
215.178	2663.16
215.252	2652.92
215.326	2620.01
215.4	2593.58
215.473	2544.26
215.547	2514.87
215.621	2490.52
215.694	2487.52
215.768	2457.28
215.842	2435.81
215.915	2411.28
215.989	2379.66
216.063	2359.56
216.136	2353.51
216.21	2346.09
216.284	2350.85
216.357	2343.09
216.431	2329.81
216.504	2325.39
216.578	2334.81
216.652	2334.19
216.725	2321.44
216.799	2318.87
216.873	2311.49
216.946	2311.02
217.02	2297.98
217.093	2286.94
217.167	2259.2
217.24	2237.73
217.314	2226.89
217.387	2213.52
217.461	2199.49
217.535	2204.96
217.608	2185.07
217.682	2174.56
217.755	2174.46
217.829	2154.19
217.902	2145.67
217.976	2140.01
218.049	2125.36
218.123	2106.32
218.196	2103.99
218.27	2095.85
218.343	2074.59
218.417	2071.21
218.49	2065.93
218.563	2072.92
218.637	2073.4
218.71	2090.57
218.784	2095.95
218.857	2101.46
218.931	2106.17
219.004	2107.69
219.077	2108.07
219.151	2112.45
219.224	2107.93
219.298	2106.07
219.371	2119.49
219.444	2107.89
219.518	2106.56
219.591	2105.65
219.665	2129.45
219.738	2128.17
219.811	2117.76
219.885	2127.56
219.958	2136.79
220.031	2134.03
220.105	2137.69
220.178	2138.31
220.251	2127.13
220.325	2128.89
220.398	2135.74
220.471	2139.69
220.544	2148.3
220.618	2140.11
220.691	2148.15
220.764	2151.48
220.838	2157.24
220.911	2150.1
220.984	2170.31
221.057	2179.16
221.131	2183.68
221.204	2155.17
221.277	2175.68
221.35	2208.65
221.424	2206.13
221.497	2207.22
221.57	2210.65
221.643	2221.21
221.716	2229.02
221.79	2230.64
221.863	2233.59
221.936	2231.54
222.009	2234.01
222.082	2239.44
222.155	2239.96
222.229	2252.29
222.302	2261.09
222.375	2261.38
222.448	2270.85
222.521	2270.99
222.594	2268.9
222.667	2261.15
222.74	2272.75
222.814	2271.56
222.887	2263.8
222.96	2276.51
223.033	2285.03
223.106	2293.74
223.179	2297.88
223.252	2302.21
223.325	2309.44
223.398	2310.2
223.471	2314.06
223.544	2314.53
223.617	2315.82
223.69	2319.48
223.763	2307.96
223.837	2313.01
223.91	2315.91
223.983	2296.36
224.056	2284.46
224.129	2289.08
224.202	2302.02
224.275	2297.54
224.348	2286.31
224.42	2273.89
224.493	2257.85
224.566	2247.05
224.639	2247.86
224.712	2238.43
224.785	2231.63
224.858	2227.34
224.931	2219.92
225.004	2208.5
225.077	2203.7
225.15	2175.97
225.223	2172.49
225.296	2192.58
225.369	2172.22
225.442	2163.09
225.514	2171.65
225.587	2174.5
225.66	2171.93
225.733	2169.74
225.806	2169.89
225.879	2164.94
225.952	2156
226.025	2168.56
226.097	2181.13
226.17	2176.7
226.243	2156.49
226.316	2151.68
226.389	2150.3
226.461	2152.73
226.534	2156.2
226.607	2154.68
226.68	2176.13
226.753	2173.79
226.825	2147.19
226.898	2158.89
226.971	2158.93
227.044	2157.13
227.117	2157.74
227.189	2162.98
227.262	2170.78
227.335	2172.69
227.407	2166.93
227.48	2170.5
227.553	2166.93
227.626	2158.65
227.698	2155.41
227.771	2160.4
227.844	2149.46
227.916	2151.03
227.989	2137.14
228.062	2132.91
228.134	2151.75
228.207	2146.38
228.28	2137.82
228.352	2137.82
228.425	2136.1
228.498	2140.77
228.57	2127.78
228.643	2139.25
228.716	2132.02
228.788	2123.5
228.861	2117.36
228.934	2128.64
229.006	2128.3
229.079	2121.74
229.151	2114.46
229.224	2098.25
229.296	2101.53
229.369	2130.22
229.442	2137.79
229.514	2131.66
229.587	2139.22
229.659	2116.19
229.732	2118.48
229.804	2130.75
229.877	2149.83
229.949	2157.35
230.022	2172.58
230.094	2172.06
230.167	2167.73
230.239	2156.55
230.312	2151.41
230.384	2171.21
230.457	2170.45
230.529	2173.83
230.602	2178.63
230.674	2180.06
230.747	2195.46
230.819	2206.12
230.892	2170.96
230.964	2170.06
231.037	2172.34
231.109	2170.91
231.181	2179.38
231.254	2168.1
231.326	2161.97
231.399	2152.54
231.471	2140.55
231.544	2115.52
231.616	2127.74
231.688	2125.41
231.761	2120.89
231.833	2117.85
231.905	2092.91
231.978	2089.87
232.05	2082.93
232.122	2079.26
232.195	2071.94
232.267	2079.5
232.339	2071.6
232.412	2089.34
232.484	2083.06
232.556	2075.6
232.629	2093.26
232.701	2096.92
232.773	2096.4
232.846	2090.12
232.918	2091.21
232.99	2096.11
233.062	2108.1
233.135	2111.62
233.207	2101.16
233.279	2109.1
233.351	2118.18
233.424	2117.7
233.496	2108.67
233.568	2129.08
233.64	2116.19
233.713	2117.05
233.785	2116
233.857	2114.76
233.929	2097.4
234.001	2111.16
234.074	2129.65
234.146	2104.77
234.218	2102.48
234.29	2102.15
234.362	2097.44
234.434	2084.79
234.507	2068.48
234.579	2049.26
234.651	2040.94
234.723	2047.65
234.795	2051.78
234.867	2045.65
234.939	2056.68
235.012	2060.77
235.084	2060.15
235.156	2069.52
235.228	2061.72
235.3	2052.83
235.372	2055.16
235.444	2069.37
235.516	2044.87
235.588	2045.92
235.66	2048.34
235.732	2040.07
235.804	2091.2
235.876	2101.24
235.948	2116.89
236.02	2124.31
236.092	2127.78
236.164	2128.87
236.236	2125.97
236.308	2123.92
236.38	2130.25
236.452	2122.59
236.524	2124.45
236.596	2139.3
236.668	2145.44
236.74	2149.86
236.812	2157
236.884	2165.28
236.956	2166.7
237.028	2161.14
237.1	2152.63
237.172	2167.8
237.244	2187.88
237.316	2152.92
237.388	2146.74
237.46	2138.03
237.532	2150.54
237.604	2144.79
237.675	2161.77
237.747	2172.95
237.819	2169.72
237.891	2166.77
237.963	2162.11
238.035	2161.97
238.107	2129.08
238.178	2145.26
238.25	2148.12
238.322	2170.25
238.394	2155.27
238.466	2151.61
238.538	2164.11
238.609	2175.95
238.681	2159.73
238.753	2149.74
238.825	2154.78
238.897	2158.54
238.968	2176.67
239.04	2170.54
239.112	2199.46
239.184	2186.66
239.255	2180
239.327	2183.99
239.399	2186.94
239.471	2201.07
239.542	2208.16
239.614	2226.19
239.686	2199.92
239.758	2212.14
239.829	2198.19
239.901	2213.37
239.973	2218.74
240.044	2225.12
240.116	2224.07
240.188	2228.35
240.259	2228.88
240.331	2223.74
240.403	2233.34
240.474	2217.25
240.546	2209.31
240.618	2190.9
240.689	2188.23
240.761	2194.94
240.833	2211.88
240.904	2211.5
240.976	2205.89
241.048	2206.13
241.119	2212.17
241.191	2223.97
241.262	2239.06
241.334	2237.64
241.405	2235.3
241.477	2230.12
241.549	2229.79
241.62	2233.5
241.692	2241.68
241.763	2258.05
241.835	2257.34
241.906	2260.34
241.978	2254.11
242.049	2272.56
242.121	2286.89
242.192	2302.78
242.264	2289.12
242.335	2272.8
242.407	2281.56
242.478	2279.94
242.55	2282.84
242.621	2277.99
242.693	2272.99
242.764	2267.47
242.836	2266.94
242.907	2275.94
242.979	2283.36
243.05	2288.55
243.122	2292.26
243.193	2290.07
243.264	2267.18
243.336	2268.13
243.407	2275.51
243.479	2290.69
243.55	2291.88
243.622	2294.59
243.693	2291.98
243.764	2308.34
243.836	2298.59
243.907	2295.41
243.978	2298.02
244.05	2304.78
244.121	2286.42
244.192	2297.08
244.264	2282.51
244.335	2282.08
244.407	2262.48
244.478	2267.43
244.549	2264.62
244.62	2253.1
244.692	2251.39
244.763	2261.57
244.834	2256.29
244.906	2249.53
244.977	2253.82
245.048	2269.34
245.119	2259.97
245.191	2253.54
245.262	2236.08
245.333	2258.58
245.405	2260.58
245.476	2265.76
245.547	2271.19
245.618	2285.99
245.689	2287.89
245.761	2293.46
245.832	2294.55
245.903	2307.49
245.974	2309.45
246.045	2306.78
246.117	2325.96
246.188	2317.49
246.259	2307.93
246.33	2311.93
246.401	2308.07
246.473	2293.56
246.544	2284.84
246.615	2293.45
246.686	2287.6
246.757	2302.25
246.828	2287.93
246.899	2302.03
246.97	2287.52
247.042	2275.24
247.113	2280.42
247.184	2297.67
247.255	2291.96
247.326	2292.96
247.397	2289.48
247.468	2289.1
247.539	2289.67
247.61	2270.35
247.681	2280.77
247.752	2294.14
247.823	2285.53
247.894	2289.09
247.965	2279.96
248.037	2272.15
248.108	2260.92
248.179	2263.11
248.25	2259.73
248.321	2267.72
248.392	2255.82
248.463	2279.37
248.534	2278.09
248.605	2286.23
248.675	2279.7
248.746	2283.51
248.817	2288.65
248.888	2294.12
248.959	2277.9
249.03	2284.37
249.101	2288.03
249.172	2282.94
249.243	2265.29
249.314	2282.71
249.385	2284.42
249.456	2297.22
249.527	2297.7
249.598	2301.74
249.669	2301.36
249.739	2305.21
249.81	2309.45
249.881	2296.41
249.952	2293.56
250.023	2292.13
250.094	2275.09
250.165	2266.32
250.235	2264.14
250.306	2262.28
250.377	2252.38
250.448	2259.85
250.519	2240.96
250.59	2257.43
250.66	2254.48
250.731	2273.22
250.802	2266.51
250.873	2271.8
250.944	2273.51
251.014	2269.42
251.085	2291.94
251.156	2295.89
251.227	2308.79
251.297	2322.45
251.368	2331.83
251.439	2339.97
251.51	2352.2
251.58	2345.78
251.651	2339.21
251.722	2353.3
251.792	2341.83
251.863	2340.02
251.934	2353.21
252.005	2379.48
252.075	2378.24
252.146	2391.04
252.217	2398.7
252.287	2411.13
252.358	2407.04
252.429	2425.61
252.499	2418.23
252.57	2420.38
252.641	2432.94
252.711	2431.37
252.782	2412.28
252.852	2434.28
252.923	2433.52
252.994	2434.42
253.064	2447.37
253.135	2442.8
253.205	2436.75
253.276	2455.27
253.347	2471.68
253.417	2465.69
253.488	2462.16
253.558	2455.02
253.629	2453.26
253.699	2455.55
253.77	2457.55
253.841	2454.88
253.911	2450.45
253.982	2454.49
254.052	2460.69
254.123	2458.5
254.193	2457.55
254.264	2496.18
254.334	2482.89
254.405	2471.46
254.475	2457.99
254.546	2457.61
254.616	2473.27
254.687	2475.75
254.757	2475.08
254.827	2468.61
254.898	2470.94
254.968	2470.37
255.039	2466.46
255.109	2473.61
255.18	2464.51
255.25	2446.61
255.321	2454.23
255.391	2441.61
255.461	2463.7
255.532	2434.55
255.602	2431.84
255.673	2415.27
255.743	2400.21
255.813	2377.23
255.884	2386.47
255.954	2397.17
256.024	2409.12
256.095	2405.46
256.165	2392.85
256.235	2397.56
256.306	2391.95
256.376	2402.23
256.446	2411.52
256.517	2417.75
256.587	2424.47
256.657	2426.23
256.728	2427.09
256.798	2424.85
256.868	2423.47
256.938	2413.47
257.009	2426.08
257.079	2433.65
257.149	2456.55
257.219	2435.55
257.29	2442.4
257.36	2420.84
257.43	2428.03
257.5	2406.76
257.571	2400.62
257.641	2407.42
257.711	2396.56
257.781	2402.56
257.852	2402.7
257.922	2376.66
257.992	2374.28
258.062	2372.09
258.132	2378.57
258.202	2376.62
258.273	2376.57
258.343	2390.24
258.413	2379.1
258.483	2377.15
258.553	2362.34
258.623	2352.53
258.693	2357.1
258.764	2370.57
258.834	2387.27
258.904	2387.03
258.974	2379.32
259.044	2374.85
259.114	2378.33
259.184	2378.61
259.254	2373.95
259.324	2354.76
259.394	2363.04
259.464	2375.42
259.535	2369.42
259.605	2359.66
259.675	2351.62
259.745	2354.91
259.815	2339.91
259.885	2332.92
259.955	2354.69
260.025	2344.7
260.095	2342.03
260.165	2346.51
260.235	2361.56
260.305	2352.8
260.375	2338.33
260.445	2361.36
260.515	2379.07
260.585	2387.88
260.655	2385.02
260.725	2395.26
260.795	2402.63
260.865	2422.39
260.934	2412.35
261.004	2422.78
261.074	2424.25
261.144	2440
261.214	2449.33
261.284	2450.71
261.354	2464.47
261.424	2453.98
261.494	2474.82
261.564	2472.2
261.634	2476.25
261.703	2452.21
261.773	2458.39
261.843	2465.06
261.913	2462.01
261.983	2442.78
262.053	2446.49
262.123	2443.25
262.192	2428.69
262.262	2438.07
262.332	2421.55
262.402	2426.45
262.472	2419.78
262.541	2399.66
262.611	2407.71
262.681	2394.52
262.751	2402.99
262.821	2395.76
262.89	2381.75
262.96	2385.32
263.03	2404.8
263.1	2410.66
263.169	2412.56
263.239	2416.9
263.309	2433.71
263.379	2435.85
263.448	2437.8
263.518	2437.18
263.588	2438.18
263.657	2455.7
263.727	2460.7
263.797	2458.56
263.867	2455.32
263.936	2438.52
264.006	2449.84
264.076	2442.98
264.145	2438.37
264.215	2426.32
264.285	2436.84
264.354	2416.95
264.424	2406.05
264.494	2383.86
264.563	2373.48
264.633	2391.62
264.702	2391.52
264.772	2371.52
264.842	2363.24
