Data from 20250703_urea_0.1M_MAYP1162681_02-31-05-299.txt Node
Date: Fri Jul 04 02:31:05 BST 2025
User: adleo
Spectrometer: MAYP116268
Trigger mode: 0
Integration Time (sec): 1.000000E0
Scans to average: 1
Electric dark correction enabled: true
Nonlinearity correction enabled: true
Boxcar width: 10
XAxis mode: Wavelengths
Number of Pixels in Spectrum: 2068
>>>>>Begin Spectral Data<<<<<
179.565	1330.58
179.642	1389.74
179.718	1436.87
179.795	1480.77
179.871	1515.75
179.948	1534.76
180.024	1556.69
180.101	1580.18
180.177	1596.63
180.254	1620.62
180.33	1645.32
180.407	1710.1
180.483	1813.96
180.56	1913.93
180.636	2004.47
180.712	1990.72
180.789	2000.38
180.865	2011.22
180.942	2020.01
181.018	2030.14
181.095	2042.32
181.171	2050.5
181.248	2052.03
181.324	2066.44
181.4	2072.96
181.477	2084.61
181.553	2099.02
181.63	2119.81
181.706	2137.46
181.782	2145.63
181.859	2144.35
181.935	2150.63
182.011	2144.11
182.088	2161.91
182.164	2180.76
182.24	2196.69
182.317	2204.39
182.393	2205.68
182.469	2220.85
182.546	2238.03
182.622	2241.93
182.698	2236.51
182.775	2245.55
182.851	2261.92
182.927	2253.88
183.003	2250.5
183.08	2243.41
183.156	2250.36
183.232	2248.12
183.308	2236.89
183.385	2244.84
183.461	2264.82
183.537	2263.77
183.613	2279.72
183.69	2268.87
183.766	2257.82
183.842	2267.63
183.918	2274.29
183.995	2286.14
184.071	2290.47
184.147	2282.33
184.223	2268.54
184.299	2281.96
184.375	2272.73
184.452	2277.06
184.528	2333.04
184.604	2341.8
184.68	2355.46
184.756	2366.45
184.832	2374.02
184.908	2380.25
184.985	2378.21
185.061	2360.46
185.137	2373.12
185.213	2361.31
185.289	2365.55
185.365	2358.51
185.441	2355.37
185.517	2368.36
185.593	2367.51
185.669	2363.65
185.745	2375.07
185.822	2396.29
185.898	2385.77
185.974	2394.43
186.05	2387.72
186.126	2349.49
186.202	2344.07
186.278	2338.88
186.354	2326.5
186.43	2330.07
186.506	2326.74
186.582	2330.41
186.658	2336.31
186.734	2313.99
186.81	2314.51
186.886	2316.56
186.962	2329.41
187.038	2327.69
187.114	2319.12
187.19	2324.5
187.266	2317.6
187.341	2317.98
187.417	2306.7
187.493	2306.8
187.569	2310.37
187.645	2304.61
187.721	2291.47
187.797	2303.75
187.873	2309.99
187.949	2306.18
188.025	2298.8
188.101	2301.51
188.176	2305.22
188.252	2304.32
188.328	2313.12
188.404	2313.79
188.48	2308.12
188.556	2301.27
188.632	2299.75
188.707	2298.79
188.783	2294.22
188.859	2287.18
188.935	2276.33
189.011	2285.37
189.086	2280.85
189.162	2269.86
189.238	2267.58
189.314	2268.05
189.39	2256.2
189.465	2249.35
189.541	2266.2
189.617	2251.64
189.693	2248.21
189.768	2251.35
189.844	2278.06
189.92	2267.98
189.996	2276.21
190.071	2288.68
190.147	2287.11
190.223	2293.92
190.298	2287.06
190.374	2274.12
190.45	2285.35
190.526	2294.63
190.601	2288.68
190.677	2292.39
190.753	2325.68
190.828	2331.01
190.904	2346.05
190.98	2363.24
191.055	2373.95
191.131	2363
191.207	2385.46
191.282	2393.6
191.358	2382.46
191.433	2365.31
191.509	2379.06
191.585	2373.26
191.66	2374.45
191.736	2382.68
191.811	2375.78
191.887	2396.87
191.963	2421.86
192.038	2426.39
192.114	2427.72
192.189	2432.34
192.265	2426.29
192.34	2402.19
192.416	2397.62
192.491	2394.15
192.567	2397.24
192.642	2400.48
192.718	2402.91
192.793	2387.72
192.869	2385.63
192.944	2389.86
193.02	2397.24
193.095	2403.67
193.171	2412.29
193.246	2414.19
193.322	2410.14
193.397	2410
193.473	2392.19
193.548	2374.19
193.624	2383.05
193.699	2380.29
193.775	2397.57
193.85	2398.24
193.925	2408.29
194.001	2410.29
194.076	2403.62
194.152	2390.62
194.227	2379.91
194.302	2369.25
194.378	2373.72
194.453	2370.63
194.529	2383.82
194.604	2367.97
194.679	2361.35
194.755	2342.46
194.83	2354.75
194.905	2355.32
194.981	2366.27
195.056	2360.03
195.131	2365.94
195.207	2364.46
195.282	2353.94
195.357	2333.09
195.433	2351.65
195.508	2334.75
195.583	2341.65
195.659	2352.84
195.734	2362.08
195.809	2361.98
195.884	2373.4
195.96	2376.07
196.035	2390.96
196.11	2386.01
196.185	2399.05
196.261	2401.72
196.336	2435.28
196.411	2415.9
196.486	2421.9
196.561	2413.9
196.637	2425.7
196.712	2442.09
196.787	2447.18
196.862	2464.37
196.937	2476.7
197.013	2482.6
197.088	2496.55
197.163	2517.32
197.238	2538.05
197.313	2537.71
197.388	2552.28
197.464	2584.01
197.539	2596.44
197.614	2591.3
197.689	2606.16
197.764	2622.69
197.839	2646.17
197.914	2637.64
197.989	2660.36
198.065	2674.36
198.14	2728.13
198.215	2753.58
198.29	2765.78
198.365	2775.26
198.44	2785.31
198.515	2814.67
198.59	2830.06
198.665	2858.08
198.74	2868.57
198.815	2869.86
198.89	2894.45
198.965	2929.4
199.04	2925.78
199.115	2941.6
199.19	2984.49
199.265	2986.21
199.34	2996.22
199.415	3031.57
199.49	3055.88
199.565	3069.56
199.64	3092.92
199.715	3086.67
199.79	3096.16
199.865	3103.27
199.94	3105.17
200.015	3140.32
200.09	3145.91
200.165	3154.01
200.24	3161.45
200.315	3205.23
200.39	3219.78
200.464	3226.22
200.539	3228.08
200.614	3245.49
200.689	3270.72
200.764	3281.03
200.839	3299.68
200.914	3308.79
200.989	3296.76
201.063	3309.88
201.138	3292.48
201.213	3297.44
201.288	3278.26
201.363	3281.94
201.438	3286.47
201.512	3301.49
201.587	3285.36
201.662	3294.14
201.737	3308.46
201.812	3318.43
201.886	3285.96
201.961	3298.13
202.036	3289.16
202.111	3286.02
202.186	3255.31
202.26	3238.32
202.335	3214.32
202.41	3210.89
202.485	3192.72
202.559	3174.17
202.634	3150.27
202.709	3160.28
202.784	3140.44
202.858	3148.64
202.933	3130.47
203.008	3125.23
203.082	3110.16
203.157	3106.72
203.232	3061.15
203.306	3043.83
203.381	3014.02
203.456	2993.75
203.53	2975.95
203.605	2959.36
203.68	2940.52
203.754	2943.76
203.829	2936.46
203.904	2926.6
203.978	2927.46
204.053	2945.77
204.127	2943.62
204.202	2956.73
204.277	2955.59
204.351	2966.7
204.426	2973.62
204.5	2983.77
204.575	2963.37
204.65	2993.14
204.724	3012.17
204.799	3046.35
204.873	3066.96
204.948	3094.67
205.022	3114.17
205.097	3135.08
205.171	3182.59
205.246	3227.02
205.32	3260.69
205.395	3301.97
205.469	3334.17
205.544	3380.3
205.618	3406.27
205.693	3468.91
205.767	3505.48
205.842	3579.46
205.916	3625.78
205.991	3673.74
206.065	3739.09
206.14	3822.64
206.214	3881.87
206.289	3938.28
206.363	4021.26
206.438	4088
206.512	4163.6
206.586	4251.72
206.661	4334.06
206.735	4389.82
206.81	4471.81
206.884	4568.54
206.958	4633.27
207.033	4737.25
207.107	4827.53
207.181	4946.11
207.256	5029.03
207.33	5143.12
207.405	5249.65
207.479	5363.21
207.553	5464.42
207.628	5544.4
207.702	5652.74
207.776	5751.63
207.851	5853.82
207.925	5972.06
207.999	6078.61
208.073	6181.14
208.148	6289.61
208.222	6383.79
208.296	6525.22
208.371	6649.3
208.445	6773.54
208.519	6916.07
208.593	7037.8
208.668	7149.91
208.742	7269.75
208.816	7383.59
208.89	7508.63
208.965	7619.58
209.039	7738.02
209.113	7873.09
209.187	8013.95
209.261	8125.14
209.336	8257.43
209.41	8398.44
209.484	8514.66
209.558	8657.83
209.632	8793.63
209.707	8920.88
209.781	9061.9
209.855	9199.65
209.929	9335.55
210.003	9457.08
210.077	9570.23
210.151	9731.39
210.226	9890
210.3	10036.36
210.374	10172.56
210.448	10286.39
210.522	10416.32
210.596	10546.54
210.67	10669.93
210.744	10826.76
210.818	10975.01
210.892	11112.98
210.966	11220.72
211.041	11344.72
211.115	11447.85
211.189	11577
211.263	11707.47
211.337	11824
211.411	11943.58
211.485	12042.01
211.559	12168.77
211.633	12283.44
211.707	12370.3
211.781	12482.14
211.855	12543.02
211.929	12652.15
212.003	12742
212.077	12854.65
212.151	12965.09
212.225	13078.08
212.299	13170.64
212.373	13247.86
212.447	13342.69
212.52	13476.12
212.594	13586.32
212.668	13696.27
212.742	13785.94
212.816	13877.96
212.89	13964.06
212.964	14053.67
213.038	14154.33
213.112	14254.74
213.186	14356.4
213.26	14417.14
213.333	14452.14
213.407	14552.02
213.481	14634.55
213.555	14727.87
213.629	14801.53
213.703	14875.42
213.777	14952.89
213.85	15014.54
213.924	15150.47
213.998	15230.87
214.072	15302.69
214.146	15364.48
214.219	15443.53
214.293	15522
214.367	15598.79
214.441	15687.86
214.515	15755.78
214.588	15808.85
214.662	15842.2
214.736	15900.86
214.81	15977.98
214.883	16062.67
214.957	16117.52
215.031	16177.67
215.105	16238.31
215.178	16291.66
215.252	16349.02
215.326	16388.3
215.4	16435.78
215.473	16447.44
215.547	16487.63
215.621	16544.41
215.694	16611.93
215.768	16645.33
215.842	16681.19
215.915	16725.67
215.989	16760.03
216.063	16809.96
216.136	16871.41
216.21	16932.72
216.284	16998.74
216.357	17062.79
216.431	17116.29
216.504	17183.42
216.578	17268.43
216.652	17326.22
216.725	17379.81
216.799	17450.27
216.873	17522.17
216.946	17587.62
217.02	17628.53
217.093	17684.48
217.167	17705.83
217.24	17742.07
217.314	17799.37
217.387	17850.89
217.461	17897.35
217.535	17965.39
217.608	18001.68
217.682	18047.51
217.755	18106.84
217.829	18147.89
217.902	18202.25
217.976	18249.48
218.049	18292.75
218.123	18319.64
218.196	18372.22
218.27	18419.88
218.343	18450.29
218.417	18489.47
218.49	18525.71
218.563	18593.61
218.637	18644.49
218.71	18710.9
218.784	18770.08
218.857	18819.95
218.931	18871.42
219.004	18916.58
219.077	18966.11
219.151	19019.65
219.224	19062.69
219.298	19111.26
219.371	19167.88
219.444	19192.61
219.518	19237.33
219.591	19286.29
219.665	19359.97
219.738	19408.64
219.811	19446.04
219.885	19502.61
219.958	19557.6
220.031	19612.05
220.105	19652.15
220.178	19693.93
220.251	19734.31
220.325	19784.05
220.398	19829.44
220.471	19871.03
220.544	19931.36
220.618	19969.92
220.691	20012.42
220.764	20063.41
220.838	20104.42
220.911	20131.84
220.984	20195.55
221.057	20244.42
221.131	20285.09
221.204	20292.41
221.277	20351.21
221.35	20422.3
221.424	20447.79
221.497	20482.25
221.57	20516.75
221.643	20560.22
221.716	20606.68
221.79	20629.57
221.863	20652.23
221.936	20685.43
222.009	20717.72
222.082	20745.34
222.155	20771.79
222.229	20819.55
222.302	20847.99
222.375	20875.12
222.448	20916.57
222.521	20932.72
222.594	20955.61
222.667	20958.07
222.74	20979.27
222.814	20993.06
222.887	21005.54
222.96	21049.06
223.033	21074.8
223.106	21100.34
223.179	21134.9
223.252	21154.33
223.325	21188.4
223.398	21210.28
223.471	21235.68
223.544	21263.83
223.617	21285.71
223.69	21302.58
223.763	21298.39
223.837	21320.08
223.91	21345.91
223.983	21338.82
224.056	21350.58
224.129	21369.19
224.202	21407.7
224.275	21436.57
224.348	21448.76
224.42	21452.52
224.493	21438.83
224.566	21446.59
224.639	21466.36
224.712	21473.06
224.785	21476.29
224.858	21481.83
224.931	21484.72
225.004	21480.67
225.077	21499.37
225.15	21487.37
225.223	21501.83
225.296	21547.77
225.369	21532.25
225.442	21526.08
225.514	21545.98
225.587	21559.24
225.66	21576.78
225.733	21592.55
225.806	21593.41
225.879	21594.28
225.952	21589.61
226.025	21617.42
226.097	21647.11
226.17	21652.61
226.243	21625.42
226.316	21630.1
226.389	21643.21
226.461	21665.38
226.534	21675.36
226.607	21668.03
226.68	21698.88
226.753	21700.81
226.825	21678.54
226.898	21703.5
226.971	21715.17
227.044	21718.4
227.117	21724.66
227.189	21729.48
227.262	21744.14
227.335	21760.91
227.407	21761.49
227.48	21770.07
227.553	21774.22
227.626	21777.93
227.698	21774.36
227.771	21795.28
227.844	21786.12
227.916	21780.24
227.989	21754.16
228.062	21747.13
228.134	21766.41
228.207	21758.94
228.28	21751.75
228.352	21746.65
228.425	21744.62
228.498	21748.67
228.57	21747.51
228.643	21756.91
228.716	21745.63
228.788	21720.28
228.861	21701.91
228.934	21717.19
229.006	21710.2
229.079	21691.12
229.151	21664.17
229.224	21638
229.296	21640.22
229.369	21664.85
229.442	21672.03
229.514	21664.03
229.587	21672.27
229.659	21643.69
229.732	21644.84
229.804	21648.8
229.877	21672.13
229.949	21679.5
230.022	21691.84
230.094	21684.08
230.167	21674.92
230.239	21656.22
230.312	21650.15
230.384	21670.01
230.457	21657.57
230.529	21653.47
230.602	21663.64
230.674	21666.92
230.747	21685.58
230.819	21686.06
230.892	21648.56
230.964	21643.54
231.037	21646.92
231.109	21639.78
231.181	21636.99
231.254	21600.45
231.326	21586.19
231.399	21556.59
231.471	21529.5
231.544	21491.71
231.616	21487.37
231.688	21476.43
231.761	21461.39
231.833	21447.75
231.905	21403.51
231.978	21404.66
232.05	21389.96
232.122	21371.02
232.195	21346.54
232.267	21349.23
232.339	21316.7
232.412	21316.99
232.484	21293.71
232.556	21270.82
232.629	21279.35
232.701	21274.86
232.773	21279.35
232.846	21262.24
232.918	21253.08
232.99	21241.46
233.062	21243.68
233.135	21233.9
233.207	21203.58
233.279	21197.94
233.351	21192.35
233.424	21176.16
233.496	21131.67
233.568	21146.85
233.64	21107.86
233.713	21082.56
233.785	21042.65
233.857	21032.1
233.929	20992.48
234.001	20989.3
234.074	20982.31
234.146	20941.83
234.218	20920.04
234.29	20894.26
234.362	20872.14
234.434	20831.56
234.507	20792.76
234.579	20745.43
234.651	20707.99
234.723	20696.37
234.795	20673.96
234.867	20634.78
234.939	20630.83
235.012	20620.18
235.084	20584.99
235.156	20569.96
235.228	20544.7
235.3	20525.43
235.372	20505.81
235.444	20504.41
235.516	20457.62
235.588	20433.71
235.66	20402.05
235.732	20366.05
235.804	20391.88
235.876	20370.15
235.948	20360.41
236.02	20347.35
236.092	20322.63
236.164	20297.33
236.236	20267.74
236.308	20244.9
236.38	20230.49
236.452	20186.88
236.524	20158.68
236.596	20147.36
236.668	20127.7
236.74	20098.83
236.812	20072.81
236.884	20054.2
236.956	20022.64
237.028	19987.7
237.1	19953.82
237.172	19942.64
237.244	19934.5
237.316	19862.5
237.388	19821.44
237.46	19787.75
237.532	19764.53
237.604	19728.62
237.675	19713.06
237.747	19688.48
237.819	19650.51
237.891	19613.02
237.963	19576.3
238.035	19539.04
238.107	19464.4
238.178	19453.27
238.25	19424.06
238.322	19418.09
238.394	19365.32
238.466	19330.38
238.538	19304.89
238.609	19284.41
238.681	19227.88
238.753	19187.64
238.825	19163.35
238.897	19133.19
238.968	19123.6
239.04	19081.87
239.112	19085.87
239.184	19044.37
239.255	19009.39
239.327	18983.17
239.399	18952.96
239.471	18929.63
239.542	18901.49
239.614	18887.71
239.686	18829.69
239.758	18807.71
239.829	18753.65
239.901	18723.72
239.973	18690.18
240.044	18666.95
240.116	18630.62
240.188	18610.04
240.259	18580.93
240.331	18539.06
240.403	18525.23
240.474	18468.7
240.546	18426.63
240.618	18368.13
240.689	18331.93
240.761	18306.1
240.833	18289.33
240.904	18255.07
240.976	18218.83
241.048	18186.16
241.119	18158.69
241.191	18125.24
241.262	18107.66
241.334	18074.93
241.405	18048.72
241.477	18006.21
241.549	17963.03
241.62	17926.31
241.692	17901.35
241.763	17875.33
241.835	17838.27
241.906	17789.98
241.978	17739.33
242.049	17729.45
242.121	17699.33
242.192	17676.34
242.264	17621.79
242.335	17553.88
242.407	17536.15
242.478	17501.98
242.55	17467.57
242.621	17424.3
242.693	17394.32
242.764	17353.12
242.836	17313.4
242.907	17281.79
242.979	17261.74
243.05	17233.79
243.122	17199.04
243.193	17158.75
243.264	17095.57
243.336	17065.83
243.407	17047.09
243.479	17038.36
243.55	17004.63
243.622	16972.82
243.693	16941.54
243.764	16922.79
243.836	16887.56
243.907	16847.08
243.978	16809.63
244.05	16781.39
244.121	16734.64
244.192	16707.31
244.264	16666.25
244.335	16638.54
244.407	16585.37
244.478	16553.76
244.549	16521.23
244.62	16483.58
244.692	16444.88
244.763	16425.41
244.834	16393.31
244.906	16359.04
244.977	16326.75
245.048	16303.67
245.119	16260.67
245.191	16218.79
245.262	16161.34
245.333	16150.35
245.405	16114.25
245.476	16090.77
245.547	16061.57
245.618	16041.8
245.689	16011.92
245.761	15979.58
245.832	15937.26
245.903	15921.21
245.974	15891.95
246.045	15852.38
246.117	15837.39
246.188	15787.07
246.259	15739.98
246.33	15698.96
246.401	15656.25
246.473	15609.45
246.544	15567.33
246.615	15553.35
246.686	15514.79
246.757	15501.92
246.828	15452.99
246.899	15444.65
246.97	15394.72
247.042	15354.56
247.113	15329.31
247.184	15317.55
247.255	15279.37
247.326	15253.82
247.397	15215.07
247.468	15180.56
247.539	15149.85
247.61	15095.38
247.681	15079.47
247.752	15073.21
247.823	15036.38
247.894	15012.09
247.965	14975.88
248.037	14945.61
248.108	14896.11
248.179	14870.61
248.25	14833.49
248.321	14817.78
248.392	14769.72
248.463	14769.91
248.534	14735.59
248.605	14715.01
248.675	14680.54
248.746	14656.58
248.817	14632.53
248.888	14616.96
248.959	14571.36
249.03	14554
249.101	14531.4
249.172	14503.44
249.243	14453.45
249.314	14446.6
249.385	14423.9
249.456	14403.03
249.527	14368.99
249.598	14350.67
249.669	14321.51
249.739	14305.31
249.81	14285.89
249.881	14243.27
249.952	14206.97
250.023	14178.72
250.094	14134.09
250.165	14089.5
250.235	14058.26
250.306	14037.96
250.377	13996.8
250.448	13983.49
250.519	13929.79
250.59	13928.78
250.66	13897.44
250.731	13885.54
250.802	13848.75
250.873	13813.76
250.944	13792.88
251.014	13760.34
251.085	13756.97
251.156	13740.15
251.227	13727.8
251.297	13712.09
251.368	13696.52
251.439	13684.76
251.51	13676.13
251.58	13639.3
251.651	13611.39
251.722	13600.73
251.792	13555.56
251.863	13529.24
251.934	13522.88
252.005	13536.62
252.075	13506.05
252.146	13498.97
252.217	13485.47
252.287	13469.03
252.358	13454.23
252.429	13452.64
252.499	13429.7
252.57	13409.11
252.641	13387.51
252.711	13369.05
252.782	13326.1
252.852	13334.49
252.923	13312.07
252.994	13284.98
253.064	13282.33
253.135	13247.09
253.205	13215.8
253.276	13212.86
253.347	13213.2
253.417	13175.55
253.488	13140.55
253.558	13107.72
253.629	13079.28
253.699	13062.07
253.77	13055.47
253.841	13025.77
253.911	12992.17
253.982	12967.78
254.052	12950.52
254.123	12938.52
254.193	12907.04
254.264	12928.54
254.334	12886.22
254.405	12842.21
254.475	12809.52
254.546	12775.63
254.616	12774.33
254.687	12760.5
254.757	12743.34
254.827	12711.91
254.898	12700.77
254.968	12681.92
255.039	12654.93
255.109	12648.47
255.18	12614.15
255.25	12567.39
255.321	12557.6
255.391	12532.3
255.461	12534.22
255.532	12478.45
255.602	12452.13
255.673	12411.74
255.743	12377.99
255.813	12333.65
255.884	12336.88
255.954	12331
256.024	12336.83
256.095	12320.05
256.165	12287.47
256.235	12271.99
256.306	12245.53
256.376	12237.77
256.446	12225.38
256.517	12212.46
256.587	12198.1
256.657	12181.81
256.728	12163.68
256.798	12144.4
256.868	12119.05
256.938	12092.73
257.009	12095.43
257.079	12081.3
257.149	12095.09
257.219	12053.97
257.29	12042.26
257.36	11999.07
257.43	11990.74
257.5	11947.55
257.571	11921.18
257.641	11910.05
257.711	11880.36
257.781	11874.52
257.852	11849.89
257.922	11812.34
257.992	11794.56
258.062	11769.11
258.132	11758.5
258.202	11744.62
258.273	11723.95
258.343	11724.19
258.413	11692.09
258.483	11661.91
258.553	11632.37
258.623	11605.33
258.693	11590.82
258.764	11593.42
258.834	11591.16
258.904	11567.11
258.974	11540.07
259.044	11519.54
259.114	11503.34
259.184	11485.85
259.254	11460.45
259.324	11422.13
259.394	11408.16
259.464	11407
259.535	11389.7
259.605	11366.23
259.675	11333.84
259.745	11325.84
259.815	11295.77
259.885	11275.67
259.955	11297.46
260.025	11274.18
260.095	11252.2
260.165	11246.13
260.235	11243.62
260.305	11219.91
260.375	11197.89
260.445	11209.02
260.515	11210.8
260.585	11206.95
260.655	11194.18
260.725	11188.73
260.795	11181.12
260.865	11189.36
260.934	11165.45
261.004	11156.92
261.074	11145.7
261.144	11151.96
261.214	11142.66
261.284	11123.91
261.354	11122.76
261.424	11096.97
261.494	11105.16
261.564	11088.49
261.634	11074.66
261.703	11037.94
261.773	11032.49
261.843	11019.38
261.913	10995.67
