Data from 20250703_urea_0.1M_MAYP1162681_10-01-05-133.txt Node
Date: Fri Jul 04 10:01:05 BST 2025
User: adleo
Spectrometer: MAYP116268
Trigger mode: 0
Integration Time (sec): 1.000000E0
Scans to average: 1
Electric dark correction enabled: true
Nonlinearity correction enabled: true
Boxcar width: 10
XAxis mode: Wavelengths
Number of Pixels in Spectrum: 2068
>>>>>Begin Spectral Data<<<<<
179.565	1216
179.642	1277.26
179.718	1319.11
179.795	1359.54
179.871	1392.85
179.948	1409.53
180.024	1432.16
180.101	1455.45
180.177	1469.4
180.254	1492.98
180.33	1515.6
180.407	1569.68
180.483	1664.37
180.56	1755.78
180.636	1842.09
180.712	1828.97
180.789	1840.56
180.865	1853.16
180.942	1860.05
181.018	1871.93
181.095	1885.25
181.171	1889.81
181.248	1888.15
181.324	1904.22
181.4	1907.83
181.477	1919.62
181.553	1932.46
181.63	1950.05
181.706	1965.03
181.782	1973.16
181.859	1970.78
181.935	1974.96
182.011	1972.49
182.088	1992.46
182.164	2009.21
182.24	2017.91
182.317	2026.94
182.393	2024.66
182.469	2037.88
182.546	2052
182.622	2053.52
182.698	2047.77
182.775	2060.09
182.851	2073.93
182.927	2065.13
183.003	2062.51
183.08	2055.9
183.156	2065.99
183.232	2064.23
183.308	2051.34
183.385	2058.85
183.461	2078.21
183.537	2079.54
183.613	2094.19
183.69	2081.4
183.766	2073.31
183.842	2086.48
183.918	2089.96
183.995	2105.27
184.071	2108.32
184.147	2101.66
184.223	2094.29
184.299	2107.18
184.375	2094.43
184.452	2103.43
184.528	2155.67
184.604	2168.94
184.68	2181.45
184.756	2187.3
184.832	2188.68
184.908	2194.14
184.985	2192.34
185.061	2176.02
185.137	2186.77
185.213	2173.98
185.289	2177.92
185.365	2168.56
185.441	2164.7
185.517	2180.55
185.593	2176.36
185.669	2174.46
185.745	2186.83
185.822	2201.95
185.898	2194.48
185.974	2206.09
186.05	2193.71
186.126	2155.98
186.202	2147.56
186.278	2141.38
186.354	2136.72
186.43	2147.19
186.506	2147.42
186.582	2150.28
186.658	2156.74
186.734	2134.72
186.81	2137.01
186.886	2139.29
186.962	2152.94
187.038	2151.8
187.114	2141.95
187.19	2149.13
187.266	2141.71
187.341	2141.57
187.417	2134
187.493	2132.91
187.569	2134.29
187.645	2130.48
187.721	2120.87
187.797	2127.91
187.873	2133.67
187.949	2125.97
188.025	2118.87
188.101	2123.68
188.176	2126.72
188.252	2121.25
188.328	2129.91
188.404	2129.86
188.48	2123.82
188.556	2120.44
188.632	2117.11
188.707	2121.25
188.783	2114.83
188.859	2108.6
188.935	2096.32
189.011	2104.13
189.086	2096.75
189.162	2088.43
189.238	2085.81
189.314	2083.39
189.39	2077.92
189.465	2069.93
189.541	2088.24
189.617	2072.5
189.693	2066.7
189.768	2070.36
189.844	2097.68
189.92	2089.5
189.996	2097.59
190.071	2108.81
190.147	2102.68
190.223	2114.1
190.298	2106.34
190.374	2094.64
190.45	2105.91
190.526	2113.85
190.601	2107.19
190.677	2112.47
190.753	2140.51
190.828	2143.45
190.904	2158.92
190.98	2172.71
191.055	2180.47
191.131	2166.62
191.207	2188.17
191.282	2197.68
191.358	2190.55
191.433	2174.17
191.509	2189.82
191.585	2186.25
191.66	2189.77
191.736	2200.09
191.811	2187.72
191.887	2200
191.963	2223.36
192.038	2229.31
192.114	2231.31
192.189	2238.3
192.265	2236.06
192.34	2212.98
192.416	2214.17
192.491	2208.93
192.567	2214.36
192.642	2218.97
192.718	2221.68
192.793	2208.46
192.869	2203.27
192.944	2202.8
193.02	2208.27
193.095	2211.12
193.171	2218.59
193.246	2217.74
193.322	2215.22
193.397	2216.21
193.473	2203.94
193.548	2186.33
193.624	2191.8
193.699	2189.95
193.775	2201.85
193.85	2200.85
193.925	2210.94
194.001	2210.32
194.076	2203.52
194.152	2192.14
194.227	2187.29
194.302	2179.06
194.378	2181.48
194.453	2180.53
194.529	2193.95
194.604	2180.34
194.679	2172.26
194.755	2151.23
194.83	2164.13
194.905	2161.71
194.981	2171.13
195.056	2164.94
195.131	2174.22
195.207	2174.89
195.282	2166.85
195.357	2148.86
195.433	2163.61
195.508	2150.9
195.583	2156.28
195.659	2172.03
195.734	2180.93
195.809	2179.41
195.884	2187.73
195.96	2191.58
196.035	2205.95
196.11	2201.67
196.185	2214.56
196.261	2218.42
196.336	2252.53
196.411	2235.06
196.486	2240.63
196.561	2236.06
196.637	2246.15
196.712	2263.38
196.787	2265.14
196.862	2278.27
196.937	2288.88
197.013	2295.93
197.088	2306.73
197.163	2329.77
197.238	2349.06
197.313	2347.35
197.388	2360.86
197.464	2389.24
197.539	2399.42
197.614	2390.34
197.689	2403.24
197.764	2420.33
197.839	2441.08
197.914	2433.65
197.989	2456.12
198.065	2470.26
198.14	2519
198.215	2542.62
198.29	2549.91
198.365	2563.86
198.44	2577.62
198.515	2608.25
198.59	2623.06
198.665	2648.4
198.74	2658.55
198.815	2657.02
198.89	2679.17
198.965	2707.38
199.04	2705.52
199.115	2720.38
199.19	2765.49
199.265	2767.64
199.34	2777.55
199.415	2813.69
199.49	2834.12
199.565	2843.89
199.64	2867.14
199.715	2865.04
199.79	2874.24
199.865	2882.73
199.94	2879.68
200.015	2907.75
200.09	2909.85
200.165	2917.62
200.24	2925.72
200.315	2964.75
200.39	2975.43
200.464	2981.1
200.539	2985.01
200.614	3000.17
200.689	3027.21
200.764	3035.55
200.839	3054.61
200.914	3058.62
200.989	3046.21
201.063	3063.38
201.138	3045.75
201.213	3046.52
201.288	3026.83
201.363	3034.17
201.438	3034.79
201.512	3047.7
201.587	3031.01
201.662	3038.36
201.737	3052.57
201.812	3063.11
201.886	3027.8
201.961	3044.59
202.036	3034.2
202.111	3030.62
202.186	3005.61
202.26	2986.77
202.335	2965.17
202.41	2959.26
202.485	2943.34
202.559	2923.84
202.634	2898.39
202.709	2910.77
202.784	2893.76
202.858	2897.14
202.933	2878.31
203.008	2872.92
203.082	2859.01
203.157	2864.54
203.232	2826.71
203.306	2805.87
203.381	2778.27
203.456	2765.97
203.53	2746.18
203.605	2732.6
203.68	2715.4
203.754	2714.87
203.829	2708.96
203.904	2698.43
203.978	2698.39
204.053	2712.78
204.127	2712.16
204.202	2720.69
204.277	2716.59
204.351	2724.5
204.426	2730.27
204.5	2736.22
204.575	2718.84
204.65	2746.82
204.724	2757.98
204.799	2781.55
204.873	2799.72
204.948	2819.5
205.022	2827.12
205.097	2844.48
205.171	2883.23
205.246	2916.61
205.32	2942.01
205.395	2968.28
205.469	2987.78
205.544	3023.22
205.618	3041.01
205.693	3092.48
205.767	3119.76
205.842	3177.3
205.916	3206.97
205.991	3235.98
206.065	3287.51
206.14	3350.95
206.214	3392.83
206.289	3431.98
206.363	3492.65
206.438	3547.2
206.512	3605.37
206.586	3680.25
206.661	3742.47
206.735	3779.52
206.81	3842.81
206.884	3917.52
206.958	3968.36
207.033	4047.24
207.107	4120.8
207.181	4217.54
207.256	4279.3
207.33	4363.13
207.405	4448.38
207.479	4540.66
207.553	4623.18
207.628	4679.68
207.702	4762.76
207.776	4828.58
207.851	4907.82
207.925	5003.19
207.999	5080.17
208.073	5157.77
208.148	5236.39
208.222	5306.94
208.296	5421.01
208.371	5518.31
208.445	5613.66
208.519	5726.75
208.593	5824.24
208.668	5907.18
208.742	5997.94
208.816	6083.28
208.89	6183.53
208.965	6265.01
209.039	6361.84
209.113	6470.71
209.187	6578.69
209.261	6663.47
209.336	6776.89
209.41	6883.76
209.484	6968.5
209.558	7076.37
209.632	7178.55
209.707	7280.76
209.781	7388.84
209.855	7492.63
209.929	7601.51
210.003	7696.75
210.077	7785.42
210.151	7921.55
210.226	8039.3
210.3	8156.85
210.374	8271.52
210.448	8365.48
210.522	8466.23
210.596	8563.43
210.67	8659.97
210.744	8794.01
210.818	8914.7
210.892	9024.79
210.966	9112.59
211.041	9219.7
211.115	9299.95
211.189	9407.99
211.263	9511.85
211.337	9599.43
211.411	9706.97
211.485	9785.34
211.559	9880.94
211.633	9971.81
211.707	10024.13
211.781	10121.69
211.855	10167.69
211.929	10237.39
212.003	10299.19
212.077	10391.21
212.151	10489.41
212.225	10579.22
212.299	10651.11
212.373	10715.48
212.447	10792.54
212.52	10900.57
212.594	10979.89
212.668	11069.04
212.742	11133.85
212.816	11206.48
212.89	11286.86
212.964	11356.7
213.038	11430.87
213.112	11520.8
213.186	11610.59
213.26	11669.29
213.333	11703.03
213.407	11785.16
213.481	11867.81
213.555	11953.26
213.629	12011.78
213.703	12068.13
213.777	12144.53
213.85	12202.13
213.924	12312.66
213.998	12381.93
214.072	12450.19
214.146	12510.59
214.219	12582.61
214.293	12644.84
214.367	12710.59
214.441	12787.62
214.515	12841.51
214.588	12886.78
214.662	12906.59
214.736	12946.99
214.81	13014.67
214.883	13081.57
214.957	13126.5
215.031	13172.97
215.105	13217.8
215.178	13266.35
215.252	13313.64
215.326	13341.98
215.4	13370.67
215.473	13374.19
215.547	13404.84
215.621	13438.93
215.694	13497.11
215.768	13528.83
215.842	13574.48
215.915	13617.82
215.989	13645.59
216.063	13682.13
216.136	13737.47
216.21	13801.58
216.284	13865.02
216.357	13925.38
216.431	13968.38
216.504	14029.65
216.578	14101.38
216.652	14154.64
216.725	14205.89
216.799	14270
216.873	14323.41
216.946	14386.9
217.02	14438.09
217.093	14493.14
217.167	14523.22
217.24	14558.8
217.314	14604.16
217.387	14650.77
217.461	14687.55
217.535	14750.17
217.608	14787.92
217.682	14836.94
217.755	14893.43
217.829	14932.38
217.902	14975.67
217.976	15023.2
218.049	15059.98
218.123	15090.78
218.196	15149.92
218.27	15193.64
218.343	15222.95
218.417	15268.98
218.49	15316.85
218.563	15378.3
218.637	15423.18
218.71	15490.27
218.784	15551.83
218.857	15615.84
218.931	15670.21
219.004	15730.94
219.077	15788.44
219.151	15849.7
219.224	15893.9
219.298	15946.05
219.371	16002.88
219.444	16035.27
219.518	16088.29
219.591	16141.65
219.665	16222.18
219.738	16268.16
219.811	16308.46
219.885	16362.63
219.958	16421.58
220.031	16461.87
220.105	16518.45
220.178	16569.78
220.251	16613.83
220.325	16658.22
220.398	16701.4
220.471	16752.78
220.544	16802.09
220.618	16836.5
220.691	16884.5
220.764	16937.08
220.838	16984.36
220.911	17032.7
220.984	17109.23
221.057	17170.58
221.131	17225.23
221.204	17233.81
221.277	17299.84
221.35	17378.49
221.424	17419.69
221.497	17470.05
221.57	17526.92
221.643	17567.55
221.716	17616.85
221.79	17650.29
221.863	17693.96
221.936	17743.45
222.009	17782.63
222.082	17824.51
222.155	17864.12
222.229	17928.84
222.302	17972.02
222.375	18010.91
222.448	18051.83
222.521	18080.64
222.594	18105.51
222.667	18128.21
222.74	18172.54
222.814	18196.78
222.887	18224.73
222.96	18274.18
223.033	18308.2
223.106	18339.33
223.179	18382.51
223.252	18422.89
223.325	18464.24
223.398	18493.3
223.471	18519.27
223.544	18565.25
223.617	18596.86
223.69	18630.45
223.763	18640.91
223.837	18677.05
223.91	18710.88
223.983	18726.59
224.056	18743.74
224.129	18784.61
224.202	18829.62
224.275	18855.4
224.348	18879.88
224.42	18888.79
224.493	18891.59
224.566	18905.27
224.639	18931.1
224.712	18952.16
224.785	18965.75
224.858	18981.08
224.931	18998.81
225.004	19011
225.077	19024.74
225.15	19023.68
225.223	19036.93
225.296	19081.55
225.369	19083.87
225.442	19096.01
225.514	19123.38
225.587	19158.99
225.66	19166.56
225.733	19183.28
225.806	19204.77
225.879	19217.88
225.952	19235.42
226.025	19273.73
226.097	19308.67
226.17	19328.38
226.243	19323.32
226.316	19338.02
226.389	19366.98
226.461	19385.05
226.534	19422.01
226.607	19433.68
226.68	19472.76
226.753	19490.4
226.825	19484.28
226.898	19513.19
226.971	19523.02
227.044	19532.66
227.117	19542.44
227.189	19569.62
227.262	19587.06
227.335	19604.7
227.407	19615.06
227.48	19632.99
227.553	19642.77
227.626	19649.33
227.698	19662.1
227.771	19685.47
227.844	19696.99
227.916	19699.11
227.989	19696.26
228.062	19688.22
228.134	19728.5
228.207	19745.23
228.28	19748.55
228.352	19753.32
228.425	19761.66
228.498	19779.54
228.57	19777.8
228.643	19795.3
228.716	19791.1
228.788	19794.24
228.861	19794.24
228.934	19815.05
229.006	19814.04
229.079	19820.16
229.151	19819.39
229.224	19813.03
229.296	19815.54
229.369	19841.9
229.442	19867.73
229.514	19876.5
229.587	19898.13
229.659	19874.28
229.732	19875.2
229.804	19896.54
229.877	19925.12
229.949	19946.62
230.022	19976.93
230.094	19993.99
230.167	19997.26
230.239	19996.88
230.312	20000.73
230.384	20037.55
230.457	20044.01
230.529	20055.91
230.602	20062.52
230.674	20077.6
230.747	20098.42
230.819	20110.75
230.892	20084.73
230.964	20089.65
231.037	20099.43
231.109	20092.15
231.181	20105.98
231.254	20088.73
231.326	20088.2
231.399	20082.71
231.471	20063.43
231.544	20024.68
231.616	20028.25
231.688	20020.54
231.761	20014.66
231.833	20008.78
231.905	19978.47
231.978	19974.42
232.05	19976.59
232.122	19970.52
232.195	19949.79
232.267	19948.3
232.339	19940.45
232.412	19955.43
232.484	19945.7
232.556	19931.72
232.629	19956.11
232.701	19951.82
232.773	19960.2
232.846	19934.9
232.918	19925.46
232.99	19923.63
233.062	19941.31
233.135	19936.35
233.207	19919.92
233.279	19924.69
233.351	19918.52
233.424	19898.47
233.496	19872.55
233.568	19873.36
233.64	19851.53
233.713	19847.58
233.785	19839.58
233.857	19832.07
233.929	19797.37
234.001	19792.89
234.074	19800.89
234.146	19754.57
234.218	19742.72
234.29	19716.94
234.362	19705.66
234.434	19671.93
234.507	19647.74
234.579	19609.86
234.651	19587.79
234.723	19580.08
234.795	19563.64
234.867	19542.34
234.939	19549.57
235.012	19538.01
235.084	19522.35
235.156	19522.06
235.228	19492.66
235.3	19466.11
235.372	19446.78
235.444	19445.1
235.516	19405.1
235.588	19382.5
235.66	19364.38
235.732	19328.43
235.804	19370.84
235.876	19365.25
235.948	19364.43
236.02	19336.57
236.092	19310.74
236.164	19285.59
236.236	19256.1
236.308	19225.01
236.38	19217.74
236.452	19182.17
236.524	19169.26
236.596	19161.93
236.668	19140.83
236.74	19117.84
236.812	19099.72
236.884	19084.06
236.956	19061.94
237.028	19029.36
237.1	18993.8
237.172	18995.49
237.244	18995
237.316	18936.36
237.388	18902.82
237.46	18863.64
237.532	18854.1
237.604	18827.26
237.675	18817.09
237.747	18805.14
237.819	18779.4
237.891	18745.57
237.963	18712.56
238.035	18681.63
238.107	18609.68
238.178	18592.04
238.25	18572.28
238.322	18566.74
238.394	18525.92
238.466	18501.01
238.538	18491.23
238.609	18476.67
238.681	18427.04
238.753	18381.93
238.825	18360.15
238.897	18332.39
238.968	18334.18
239.04	18305.12
239.112	18314.03
239.184	18272.11
239.255	18237.99
239.327	18223.39
239.399	18199.82
239.471	18192.3
239.542	18167.34
239.614	18164.26
239.686	18106.43
239.758	18092.21
239.829	18052.26
239.901	18030.77
239.973	17991.92
240.044	17953.9
240.116	17918.29
240.188	17892.6
240.259	17864.22
240.331	17818.19
240.403	17799.83
240.474	17741.62
240.546	17695.16
240.618	17640.99
240.689	17611.79
240.761	17586.15
240.833	17567.84
240.904	17533.72
240.976	17501.19
241.048	17466.25
241.119	17438.97
241.191	17424.66
241.262	17413.38
241.334	17381.24
241.405	17350.83
241.477	17321.62
241.549	17300.37
241.62	17274.78
241.692	17250.78
241.763	17237.33
241.835	17200.66
241.906	17164.17
241.978	17118.73
242.049	17109.52
242.121	17086.77
242.192	17070.24
242.264	17024.7
242.335	16965.42
242.407	16937.51
242.478	16894.43
242.55	16870.57
242.621	16838.33
242.693	16797.6
242.764	16744.93
242.836	16699.48
242.907	16675.86
242.979	16644.54
243.05	16615.23
243.122	16587.47
243.193	16553.11
243.264	16504.33
243.336	16475.08
243.407	16458.16
243.479	16453.15
243.55	16423.46
243.622	16389.05
243.693	16352.8
243.764	16339.94
243.836	16301.23
243.907	16276.75
243.978	16246.91
244.05	16223.92
244.121	16171.72
244.192	16149.84
244.264	16111.62
244.335	16086.8
244.407	16033.2
244.478	16014.79
244.549	15974.64
244.62	15926.83
244.692	15896.41
244.763	15863.4
244.834	15827.49
244.906	15779
244.977	15750.95
245.048	15736.15
245.119	15698.75
245.191	15656.14
245.262	15599.16
245.333	15589.71
245.405	15553.18
245.476	15519.15
245.547	15479.38
245.618	15459.38
245.689	15431.13
245.761	15402.74
245.832	15366.98
245.903	15347.17
245.974	15316.75
246.045	15279.44
246.117	15266.09
246.188	15212.68
246.259	15167.66
246.33	15138.02
246.401	15108.85
246.473	15061.13
246.544	15013.85
246.615	14997.6
246.686	14966.94
246.757	14952.53
246.828	14906.98
246.899	14893.63
246.97	14852.36
247.042	14824.02
247.113	14795.19
247.184	14790.9
247.255	14751.14
247.326	14716.48
247.397	14682.35
247.468	14649.62
247.539	14627.3
247.61	14580.01
247.681	14567.04
247.752	14564.25
247.823	14531.08
247.894	14510.21
247.965	14473.72
248.037	14436.79
248.108	14387.67
248.179	14357.3
248.25	14328.14
248.321	14308.57
248.392	14264.8
248.463	14255.54
248.534	14226.04
248.605	14210.08
248.675	14170.17
248.746	14148.28
248.817	14140.43
248.888	14124.9
248.959	14076.07
249.03	14051.68
249.101	14028.83
249.172	13991.08
249.243	13938.54
249.314	13925.96
249.385	13891.68
249.456	13873.03
249.527	13852.3
249.598	13835.28
249.669	13808.04
249.739	13787.12
249.81	13764.75
249.881	13723.15
249.952	13698.42
250.023	13667.04
250.094	13629.15
250.165	13597.04
250.235	13573.86
250.306	13542.14
250.377	13497.79
250.448	13481.2
250.519	13437
250.59	13427.36
250.66	13398.63
250.731	13392.79
250.802	13361.36
250.873	13347.43
250.944	13331.14
251.014	13295.75
251.085	13296.81
251.156	13283.36
251.227	13267.84
251.297	13264.27
251.368	13253.48
251.439	13243.35
251.51	13234
251.58	13198.04
251.651	13163.57
251.722	13155.67
251.792	13110.01
251.863	13087.16
251.934	13077.52
252.005	13088.23
252.075	13067.26
252.146	13064.36
252.217	13047.92
252.287	13037.8
252.358	13008.44
252.429	12994.99
252.499	12965.59
252.57	12940.76
252.641	12922.49
252.711	12895.88
252.782	12851.92
252.852	12851.05
252.923	12821.65
252.994	12798.94
253.064	12792.96
253.135	12754.4
253.205	12719.02
253.276	12716.94
253.347	12715.5
253.417	12690.67
253.488	12659.48
253.558	12628.73
253.629	12603.32
253.699	12588
253.77	12576.72
253.841	12552.76
253.911	12536.71
253.982	12518.58
254.052	12500.21
254.123	12481.9
254.193	12463.05
254.264	12479.39
254.334	12446.47
254.405	12416.44
254.475	12382.69
254.546	12357.63
254.616	12364.13
254.687	12346.11
254.757	12334.01
254.827	12306.58
254.898	12279.15
254.968	12255.24
255.039	12229.5
255.109	12217.79
255.18	12185.21
255.25	12137.73
255.321	12127.17
255.391	12091.6
255.461	12095.69
255.532	12049.76
255.602	12023.1
255.673	11982.13
255.743	11948.63
255.813	11899.13
255.884	11884.09
255.954	11867.12
256.024	11867.22
256.095	11840.81
256.165	11807.07
256.235	11791.93
256.306	11766.29
256.376	11759.93
256.446	11746.82
256.517	11731.1
256.587	11723.63
256.657	11703.68
256.728	11689.12
256.798	11667.39
256.868	11644.93
256.938	11614.08
257.009	11613.11
257.079	11607.81
257.149	11619.62
257.219	11577.88
257.29	11571.18
257.36	11534.26
257.43	11531.04
257.5	11483.13
257.571	11462.16
257.641	11451.22
257.711	11420.67
257.781	11416.28
257.852	11404.57
257.922	11365.58
257.992	11347.94
258.062	11321.24
258.132	11311.74
258.202	11293.14
258.273	11272.95
258.343	11275.5
258.413	11257.57
258.483	11233.52
258.553	11194.63
258.623	11169.38
258.693	11159.02
258.764	11154.49
258.834	11154.39
258.904	11140.17
258.974	11113
259.044	11094.73
259.114	11083.65
259.184	11070.25
259.254	11045.53
259.324	11007.84
259.394	11007.12
259.464	11005.34
259.535	10985.77
259.605	10963.31
259.675	10936.91
259.745	10921.49
259.815	10886.84
259.885	10858.36
259.955	10870.27
260.025	10853.55
260.095	10833.79
260.165	10820.39
260.235	10822.85
260.305	10795.72
260.375	10764.25
260.445	10775.87
260.515	10769.51
260.585	10767.77
260.655	10751.82
260.725	10743.87
260.795	10735.63
260.865	10734.18
260.934	10706.72
261.004	10694.05
261.074	10681.23
261.144	10680.75
261.214	10679.4
261.284	10665.52
261.354	10659.02
261.424	10625.28
261.494	10627.6
261.564	10612.08
261.634	10606.44
261.703	10565.63
261.773	10557.87
261.843	10547.27
261.913	10528.48
261.983	10501.79
