Data from 20250703_urea_0.1M_MAYP1162681_13-51-04-969.txt Node
Date: Thu Jul 03 13:51:04 BST 2025
User: adleo
Spectrometer: MAYP116268
Trigger mode: 0
Integration Time (sec): 1.000000E0
Scans to average: 1
Electric dark correction enabled: true
Nonlinearity correction enabled: true
Boxcar width: 10
XAxis mode: Wavelengths
Number of Pixels in Spectrum: 2068
>>>>>Begin Spectral Data<<<<<
179.565	1247.35
179.642	1304.04
179.718	1348.63
179.795	1388.34
179.871	1422.36
179.948	1440.09
180.024	1459.14
180.101	1478.9
180.177	1490.54
180.254	1515.19
180.33	1537.02
180.407	1591.66
180.483	1692.96
180.56	1787.55
180.636	1874.06
180.712	1856.23
180.789	1867.02
180.865	1878.42
180.942	1887.98
181.018	1894.82
181.095	1907.76
181.171	1913.13
181.248	1913.94
181.324	1928.54
181.4	1934.53
181.477	1944.28
181.553	1959.11
181.63	1982.74
181.706	1999.62
181.782	2009.79
181.859	2009.13
181.935	2015.03
182.011	2015.36
182.088	2026.87
182.164	2044.57
182.24	2058.12
182.317	2070.77
182.393	2071.38
182.469	2086.79
182.546	2099.83
182.622	2106.48
182.698	2102.01
182.775	2113
182.851	2126.6
182.927	2120.56
183.003	2115.19
183.08	2109.39
183.156	2116.19
183.232	2113.52
183.308	2103.06
183.385	2111.67
183.461	2128.6
183.537	2127.99
183.613	2139.21
183.69	2130.32
183.766	2122.32
183.842	2129.55
183.918	2136.5
183.995	2150.25
184.071	2153.67
184.147	2148.35
184.223	2135.79
184.299	2148.45
184.375	2136.51
184.452	2141.84
184.528	2191.47
184.604	2202.93
184.68	2214.96
184.756	2222.96
184.832	2218.86
184.908	2223.33
184.985	2222.38
185.061	2206.97
185.137	2220.1
185.213	2208.16
185.289	2211.68
185.365	2201.26
185.441	2197.74
185.517	2209.78
185.593	2203.41
185.669	2200.6
185.745	2210.4
185.822	2228.33
185.898	2220.1
185.974	2230.56
186.05	2224.57
186.126	2189.6
186.202	2184.65
186.278	2179.65
186.354	2171.33
186.43	2186.98
186.506	2188.55
186.582	2190.6
186.658	2194.12
186.734	2171.38
186.81	2174.85
186.886	2177.7
186.962	2190.12
187.038	2190.31
187.114	2182.69
187.19	2189.17
187.266	2178.65
187.341	2176.37
187.417	2169.38
187.493	2166.52
187.569	2169.66
187.645	2164.67
187.721	2154.25
187.797	2159.76
187.873	2165.47
187.949	2160.24
188.025	2150.39
188.101	2152.39
188.176	2155.14
188.252	2152.67
188.328	2161.37
188.404	2161.33
188.48	2155.71
188.556	2149
188.632	2146.82
188.707	2146.91
188.783	2145.63
188.859	2140.92
188.935	2134.5
189.011	2139.59
189.086	2135.59
189.162	2125.08
189.238	2122.6
189.314	2118.66
189.39	2114.9
189.465	2107.9
189.541	2122.56
189.617	2109.57
189.693	2105.86
189.768	2110.67
189.844	2137.23
189.92	2130.09
189.996	2137.75
190.071	2148.27
190.147	2147.12
190.223	2156.35
190.298	2148.88
190.374	2133.14
190.45	2144.55
190.526	2150.98
190.601	2144.84
190.677	2151.16
190.753	2179.34
190.828	2181.86
190.904	2197.61
190.98	2212.6
191.055	2223.83
191.131	2216.03
191.207	2235.82
191.282	2244.33
191.358	2236.34
191.433	2220.01
191.509	2233.95
191.585	2233.23
191.66	2236.95
191.736	2247.84
191.811	2239.28
191.887	2256.27
191.963	2282.63
192.038	2288.48
192.114	2291.24
192.189	2298.04
192.265	2290.96
192.34	2268.49
192.416	2266.97
192.491	2261.54
192.567	2264.16
192.642	2265.54
192.718	2266.78
192.793	2259.68
192.869	2253.83
192.944	2255.12
193.02	2262.11
193.095	2264.59
193.171	2268.2
193.246	2263.78
193.322	2259.16
193.397	2259.35
193.473	2245.45
193.548	2224.37
193.624	2231.42
193.699	2229.61
193.775	2248.13
193.85	2248.98
193.925	2259.59
194.001	2261.12
194.076	2255.88
194.152	2246.22
194.227	2238.65
194.302	2228.76
194.378	2228.66
194.453	2228.14
194.529	2241.08
194.604	2228.76
194.679	2223.29
194.755	2207.02
194.83	2224.59
194.905	2222.54
194.981	2232.29
195.056	2224.54
195.131	2232.87
195.207	2230.06
195.282	2218.74
195.357	2197.41
195.433	2214.11
195.508	2200.83
195.583	2205.16
195.659	2218.96
195.734	2229.29
195.809	2231.43
195.884	2237.67
195.96	2237.81
196.035	2250.8
196.11	2247.42
196.185	2256.79
196.261	2262.79
196.336	2292.2
196.411	2275.63
196.486	2281.15
196.561	2275.06
196.637	2282.14
196.712	2299.86
196.787	2301.28
196.862	2319.17
196.937	2329.26
197.013	2333.26
197.088	2343.49
197.163	2369.63
197.238	2385.73
197.313	2382.16
197.388	2392.4
197.464	2424.68
197.539	2436.01
197.614	2431.77
197.689	2444.2
197.764	2460.96
197.839	2477.48
197.914	2471.95
197.989	2492.19
198.065	2502.47
198.14	2552.6
198.215	2580.41
198.29	2589.51
198.365	2605.18
198.44	2614.89
198.515	2642.66
198.59	2661.91
198.665	2685.86
198.74	2694.92
198.815	2697.92
198.89	2720.69
198.965	2755.05
199.04	2750.57
199.115	2766.34
199.19	2807.84
199.265	2809.08
199.34	2818.75
199.415	2854.7
199.49	2876.09
199.565	2886.19
199.64	2914.64
199.715	2910.78
199.79	2920.31
199.865	2930.51
199.94	2930.99
200.015	2964.36
200.09	2968.37
200.165	2973.23
200.24	2982.67
200.315	3022.99
200.39	3038.21
200.464	3045.26
200.539	3046.64
200.614	3063.76
200.689	3090.03
200.764	3096.81
200.839	3118.3
200.914	3126.41
200.989	3113.67
201.063	3128.4
201.138	3115.87
201.213	3116.59
201.288	3098.14
201.363	3101.52
201.438	3103.33
201.512	3120.92
201.587	3102.08
201.662	3109.62
201.737	3124.02
201.812	3133.9
201.886	3098.43
201.961	3108.26
202.036	3095.77
202.111	3093.29
202.186	3067.42
202.26	3049.62
202.335	3031.93
202.41	3027.02
202.485	3011.29
202.559	2995.32
202.634	2971.58
202.709	2984.11
202.784	2966.66
202.858	2974.67
202.933	2963.85
203.008	2962.23
203.082	2947.64
203.157	2955.65
203.232	2920.29
203.306	2906.55
203.381	2882.71
203.456	2869.7
203.53	2862.54
203.605	2857.73
203.68	2846.57
203.754	2856.15
203.829	2858.96
203.904	2856.05
203.978	2862.06
204.053	2887.33
204.127	2896.43
204.202	2924.09
204.277	2933.43
204.351	2955.7
204.426	2977.74
204.5	3003.16
204.575	2999.58
204.65	3045.72
204.724	3074.93
204.799	3126.18
204.873	3169.28
204.948	3220.47
205.022	3260.26
205.097	3304.91
205.171	3376.65
205.246	3447.28
205.32	3509.89
205.395	3577.24
205.469	3639.11
205.544	3718.14
205.618	3779.44
205.693	3877.75
205.767	3943.41
205.842	4048.89
205.916	4132.4
205.991	4216.19
206.065	4317.45
206.14	4435.78
206.214	4537.46
206.289	4641.29
206.363	4764.99
206.438	4875.48
206.512	5000.31
206.586	5146.64
206.661	5277.65
206.735	5384.02
206.81	5514.98
206.884	5663.11
206.958	5782.89
207.033	5939.12
207.107	6087.76
207.181	6268.81
207.256	6416.02
207.33	6590.18
207.405	6758.91
207.479	6939.98
207.553	7106.8
207.628	7252.03
207.702	7431.37
207.776	7588.61
207.851	7760.05
207.925	7943.82
207.999	8118.21
208.073	8291.33
208.148	8463.73
208.222	8631.63
208.296	8839.68
208.371	9038.32
208.445	9231.69
208.519	9449.04
208.593	9648.58
208.668	9832.11
208.742	10011.35
208.816	10193.85
208.89	10395.12
208.965	10580.04
209.039	10776.82
209.113	10982.94
209.187	11189.43
209.261	11371.53
209.336	11583.71
209.41	11792.82
209.484	11979.2
209.558	12191.94
209.632	12389.45
209.707	12592.23
209.781	12801.42
209.855	13003.2
209.929	13206.52
210.003	13400.49
210.077	13579.91
210.151	13809.31
210.226	14032.01
210.3	14248.63
210.374	14451.14
210.448	14634.65
210.522	14830.06
210.596	15009.43
210.67	15192.6
210.744	15425.94
210.818	15638.55
210.892	15835.5
210.966	16002.9
211.041	16200.42
211.115	16374.41
211.189	16567.54
211.263	16749.92
211.337	16916.15
211.411	17100.16
211.485	17256.98
211.559	17438.38
211.633	17611.31
211.707	17741.42
211.781	17906
211.855	18034.09
211.929	18188.89
212.003	18329.03
212.077	18487.77
212.151	18660.44
212.225	18824.53
212.299	18956.52
212.373	19088.47
212.447	19226.83
212.52	19404.03
212.594	19547.44
212.668	19696.69
212.742	19824.21
212.816	19962.13
212.89	20100.68
212.964	20236.59
213.038	20378.13
213.112	20519.63
213.186	20658.91
213.26	20766.72
213.333	20846.82
213.407	20970.87
213.481	21088.81
213.555	21219.75
213.629	21333.79
213.703	21442.58
213.777	21562.02
213.85	21660.69
213.924	21813.79
213.998	21930.06
214.072	22028.69
214.146	22122.01
214.219	22230.72
214.293	22329.64
214.367	22430.93
214.441	22545.86
214.515	22634.33
214.588	22703.95
214.662	22760.11
214.736	22842.8
214.81	22944.09
214.883	23045.09
214.957	23125.08
215.031	23215.68
215.105	23284.96
215.178	23354.69
215.252	23425.96
215.326	23472.78
215.4	23532.29
215.473	23556.3
215.547	23618.91
215.621	23688.74
215.694	23770.78
215.768	23804.21
215.842	23859.23
215.915	23916.73
215.989	23945.37
216.063	23989.56
216.136	24060.94
216.21	24125.62
216.284	24194.02
216.357	24260.44
216.431	24317.75
216.504	24382.2
216.578	24465.66
216.652	24527.4
216.725	24577.58
216.799	24642.47
216.873	24709.14
216.946	24766.64
217.02	24811.12
217.093	24852.42
217.167	24885.71
217.24	24919.73
217.314	24971.02
217.387	25015.98
217.461	25062.5
217.535	25128.65
217.608	25166.52
217.682	25196.73
217.755	25248.46
217.829	25270.71
217.902	25304.25
217.976	25336.05
218.049	25368.04
218.123	25373.11
218.196	25416.49
218.27	25450.03
218.343	25474.22
218.417	25503.27
218.49	25538.11
218.563	25587.77
218.637	25622.24
218.71	25664.57
218.784	25701.2
218.857	25741.07
218.931	25781.13
219.004	25808.4
219.077	25848.28
219.151	25885.49
219.224	25908.61
219.298	25929.85
219.371	25966.44
219.444	25984.3
219.518	26013.6
219.591	26039.86
219.665	26104.94
219.738	26129.13
219.811	26147.23
219.885	26173.11
219.958	26206.95
220.031	26228.72
220.105	26260.59
220.178	26286.32
220.251	26297.57
220.325	26312.92
220.398	26342.04
220.471	26365.11
220.544	26388.63
220.618	26390.65
220.691	26415.95
220.764	26452.94
220.838	26474.91
220.911	26499.19
220.984	26529.66
221.057	26558.92
221.131	26575.19
221.204	26547.76
221.277	26574.8
221.35	26617.88
221.424	26614.78
221.497	26625.07
221.57	26628.5
221.643	26633.23
221.716	26649.99
221.79	26645.64
221.863	26653.22
221.936	26646.51
222.009	26642.6
222.082	26636.95
222.155	26634.39
222.229	26646.42
222.302	26642.84
222.375	26645.21
222.448	26640.77
222.521	26636.28
222.594	26623.91
222.667	26613.53
222.74	26616.53
222.814	26597.65
222.887	26581.51
222.96	26585.23
223.033	26586.01
223.106	26578.81
223.179	26577.6
223.252	26568.04
223.325	26575.04
223.398	26566.59
223.471	26569.06
223.544	26563.07
223.617	26559.45
223.69	26555.54
223.763	26534.58
223.837	26519.76
223.91	26513.24
223.983	26488.27
224.056	26463.41
224.129	26450.76
224.202	26445.45
224.275	26431.54
224.348	26416.77
224.42	26380.27
224.493	26362.84
224.566	26338.12
224.639	26337.3
224.712	26305.67
224.785	26278.54
224.858	26255.94
224.931	26228.33
225.004	26196.22
225.077	26175.9
225.15	26137.28
225.223	26114.06
225.296	26109.08
225.369	26076.06
225.442	26036.91
225.514	26003.8
225.587	25989.13
225.66	25966.29
225.733	25948.91
225.806	25930.47
225.879	25901.32
225.952	25868.06
226.025	25844.94
226.097	25824.14
226.17	25796.81
226.243	25762.93
226.316	25734.5
226.389	25698.54
226.461	25677.93
226.534	25650.28
226.607	25622.53
226.68	25623.93
226.753	25591.11
226.825	25539.99
226.898	25524.4
226.971	25504.62
227.044	25500.51
227.117	25478.94
227.189	25460.55
227.262	25450.75
227.335	25414.75
227.407	25386.18
227.48	25369.29
227.553	25352.35
227.626	25317.51
227.698	25282.23
227.771	25250.97
227.844	25218.3
227.916	25199.19
227.989	25155.57
228.062	25121.07
228.134	25110.5
228.207	25068.04
228.28	25037.16
228.352	25009.56
228.425	24979.98
228.498	24954.6
228.57	24907.94
228.643	24882.42
228.716	24844.16
228.788	24794.74
228.861	24767.1
228.934	24742.93
229.006	24704.67
229.079	24664.53
229.151	24631.24
229.224	24585.46
229.296	24558.16
229.369	24544.74
229.442	24522.6
229.514	24491.82
229.587	24485.51
229.659	24439.43
229.732	24412.08
229.804	24387.19
229.877	24382.66
229.949	24363.17
230.022	24344.79
230.094	24314.78
230.167	24284.63
230.239	24242.86
230.312	24205.58
230.384	24191.68
230.457	24169.3
230.529	24149.29
230.602	24108.96
230.674	24085.86
230.747	24073.13
230.819	24062.08
230.892	24006.13
230.964	23980.37
231.037	23946.04
231.109	23903.06
231.181	23880.35
231.254	23843.69
231.326	23809.26
231.399	23771.88
231.471	23730.01
231.544	23681.01
231.616	23666.06
231.688	23632.01
231.761	23596.04
231.833	23564.41
231.905	23510.25
231.978	23475.33
232.05	23437.57
232.122	23412.93
232.195	23371.61
232.267	23357.33
232.339	23298.89
232.412	23286.25
232.484	23245.22
232.556	23215.32
232.629	23198.88
232.701	23175.93
232.773	23134.85
232.846	23097.57
232.918	23052.44
232.99	23025.15
233.062	22993.18
233.135	22957.16
233.207	22915.26
233.279	22898.44
233.351	22871.24
233.424	22836.14
233.496	22781.28
233.568	22771.97
233.64	22719.66
233.713	22680.85
233.785	22637.65
233.857	22626.57
233.929	22561.67
234.001	22541.04
234.074	22523.78
234.146	22475.33
234.218	22422.44
234.29	22390.38
234.362	22345.41
234.434	22298.26
234.507	22235.35
234.579	22185.41
234.651	22145.73
234.723	22113.34
234.795	22072.94
234.867	22028.98
234.939	21996.92
235.012	21973.35
235.084	21935.41
235.156	21914.2
235.228	21872.8
235.3	21824.21
235.372	21786.27
235.444	21765.26
235.516	21701.82
235.588	21660.7
235.66	21611.01
235.732	21564.98
235.804	21577.12
235.876	21554.86
235.948	21539.53
236.02	21512.63
236.092	21474.85
236.164	21434.31
236.236	21396.57
236.308	21350.59
236.38	21317
236.452	21266.97
236.524	21227.78
236.596	21208.02
236.668	21174.81
236.74	21139.24
236.812	21103.53
236.884	21073.02
236.956	21039
237.028	20988.39
237.1	20939.81
237.172	20928.2
237.244	20907.18
237.316	20833.44
237.388	20785.73
237.46	20727.36
237.532	20689.77
237.604	20649.14
237.675	20623.02
237.747	20584.8
237.819	20535.5
237.891	20489.24
237.963	20450.44
238.035	20398.2
238.107	20307.79
238.178	20277.77
238.25	20240.66
238.322	20223.36
238.394	20162.59
238.466	20113.67
238.538	20079.55
238.609	20037.92
238.681	19965
238.753	19917.82
238.825	19872.23
238.897	19829.49
238.968	19811.22
239.04	19772.05
239.112	19761.01
239.184	19710.36
239.255	19664.53
239.327	19635.47
239.399	19595.33
239.471	19562.8
239.542	19533.45
239.614	19517.94
239.686	19441.07
239.758	19411.87
239.829	19352.55
239.901	19322.48
239.973	19284.07
240.044	19254.48
240.116	19223.45
240.188	19188.94
240.259	19145.33
240.331	19100.13
240.403	19065.53
240.474	19009.53
240.546	18962.5
240.618	18898.55
240.689	18853.25
240.761	18822.07
240.833	18797.84
240.904	18753.93
240.976	18707.77
241.048	18672.73
241.119	18635.24
241.191	18619.58
241.262	18590.96
241.334	18562.52
241.405	18518.48
241.477	18477.9
241.549	18429.37
241.62	18392.85
241.692	18369.09
241.763	18352.99
241.835	18309.43
241.906	18283.02
241.978	18229.77
242.049	18208.37
242.121	18177.05
242.192	18150.98
242.264	18091.03
242.335	18032.14
242.407	18002.26
242.478	17963.76
242.55	17928.72
242.621	17881.93
242.693	17836.14
242.764	17793.16
242.836	17743.47
242.907	17708.97
242.979	17673.98
243.05	17647.33
243.122	17607.48
243.193	17557.26
243.264	17497.4
243.336	17464.83
243.407	17437.07
243.479	17414.56
243.55	17383
243.622	17349.65
243.693	17303.53
243.764	17283.86
243.836	17242.95
243.907	17201.16
243.978	17166.7
244.05	17135.28
244.121	17085.21
244.192	17051.66
244.264	16996.1
244.335	16958.65
244.407	16920.19
244.478	16892.04
244.549	16856.57
244.62	16805.68
244.692	16768.37
244.763	16739.55
244.834	16701
244.906	16651.07
244.977	16618.2
245.048	16597.67
245.119	16553.76
245.191	16511.39
245.262	16452.06
245.333	16433.03
245.405	16405.75
245.476	16377.94
245.547	16345.98
245.618	16326.41
245.689	16302.17
245.761	16277.16
245.832	16244.33
245.903	16207.51
245.974	16170.4
246.045	16131.98
246.117	16122.83
246.188	16075.45
246.259	16024.79
246.33	15989.41
246.401	15947.86
246.473	15900.19
246.544	15849.06
246.615	15827.85
246.686	15790.4
246.757	15769.57
246.828	15727.78
246.899	15707.64
246.97	15653.27
247.042	15608.58
247.113	15578.99
247.184	15565.45
247.255	15523.17
247.326	15488.71
247.397	15455.07
247.468	15424.27
247.539	15396.36
247.61	15345.55
247.681	15329.16
247.752	15313.84
247.823	15273.59
247.894	15252.71
247.965	15210.1
248.037	15172.02
248.108	15124.01
248.179	15094.8
248.25	15070.65
248.321	15039.56
248.392	14993.82
248.463	14987.7
248.534	14953.95
248.605	14929.42
248.675	14890.81
248.746	14865.21
248.817	14844.58
248.888	14825.64
248.959	14784.23
249.03	14758.3
249.101	14730.72
249.172	14700.06
249.243	14646.94
249.314	14640.87
249.385	14608.67
249.456	14596.28
249.527	14570.78
249.598	14554.15
249.669	14529.23
249.739	14506.18
249.81	14488.01
249.881	14453.5
249.952	14429.68
250.023	14407.12
250.094	14357.91
250.165	14316.98
250.235	14283.86
250.306	14249.83
250.377	14211.22
250.448	14183.98
250.519	14140.35
250.59	14127.97
250.66	14097.45
250.731	14086.17
250.802	14048.57
250.873	14027.7
250.944	14001.67
251.014	13967.73
251.085	13958.52
251.156	13931.81
251.227	13909.78
251.297	13892.29
251.368	13876.62
251.439	13853.14
251.51	13847.6
251.58	13816.36
251.651	13780.78
251.722	13772.88
251.792	13730.55
251.863	13695.99
251.934	13690.35
252.005	13685.48
252.075	13660.07
252.146	13646.34
252.217	13636.26
252.287	13619.53
252.358	13594.75
252.429	13590.13
252.499	13564.48
252.57	13540.57
252.641	13527.94
252.711	13506.34
252.782	13467.1
252.852	13459.54
252.923	13437.12
252.994	13409.21
253.064	13401.45
253.135	13376.81
253.205	13340.95
253.276	13343.21
253.347	13343.84
253.417	13315.06
253.488	13289.56
253.558	13260.97
253.629	13236.97
253.699	13217.01
253.77	13199.36
253.841	13170.34
253.911	13146.43
253.982	13123.15
254.052	13112.88
254.123	13089.84
254.193	13067.28
254.264	13090.42
254.334	13054.46
254.405	13015.51
254.475	12976.27
254.546	12950.67
254.616	12947.82
254.687	12939.49
254.757	12920.15
254.827	12891.71
254.898	12872.82
254.968	12852.18
255.039	12825.77
255.109	12814.83
255.18	12788.7
255.25	12745.84
255.321	12735.62
255.391	12698.75
255.461	12701.83
255.532	12648.56
255.602	12625.04
255.673	12584.21
255.743	12543.72
255.813	12504.38
255.884	12499.08
255.954	12484.19
256.024	12483.42
256.095	12458.11
256.165	12421.91
256.235	12403.73
256.306	12367.92
256.376	12358.81
256.446	12347.96
256.517	12334.66
256.587	12319.52
256.657	12297.83
256.728	12283.47
256.798	12258.64
256.868	12238.2
256.938	12207.88
257.009	12205.38
257.079	12201.76
257.149	12213.76
257.219	12175.15
257.29	12161.18
257.36	12126.18
257.43	12114.81
257.5	12072.92
257.571	12054.7
257.641	12042.74
257.711	12010.35
257.781	12007.41
257.852	11990.44
257.922	11948.03
257.992	11927.4
258.062	11904.31
258.132	11898.43
258.202	11878.28
258.273	11863
258.343	11861.89
258.413	11836.78
258.483	11816.54
258.553	11776.43
258.623	11745.25
258.693	11732.62
258.764	11734.45
258.834	11718.07
258.904	11703.94
258.974	11679.65
259.044	11655.26
259.114	11640.03
259.184	11628.08
259.254	11606.15
259.324	11557.9
259.394	11547.3
259.464	11546.19
259.535	11527.01
259.605	11495.97
259.675	11474.43
259.745	11464.35
259.815	11436.26
259.885	11406.42
259.955	11418.09
260.025	11398.62
260.095	11372.4
260.165	11356.98
260.235	11349.99
260.305	11336.88
260.375	11310.13
260.445	11317.26
260.515	11316.73
260.585	11310.23
260.655	11295.77
260.725	11292.59
260.795	11293.31
260.865	11299.62
260.934	11273.65
261.004	11264.49
261.074	11246.85
261.144	11244.44
261.214	11227.72
261.284	11202.66
261.354	11205.02
261.424	11171.43
261.494	11171.81
261.564	11163.96
261.634	11160.05
261.703	11121.74
261.773	11118.51
