Data from 20250703_urea_0.1M_MAYP1162681_23-11-05-246.txt Node
Date: Thu Jul 03 23:11:05 BST 2025
User: adleo
Spectrometer: MAYP116268
Trigger mode: 0
Integration Time (sec): 1.000000E0
Scans to average: 1
Electric dark correction enabled: true
Nonlinearity correction enabled: true
Boxcar width: 10
XAxis mode: Wavelengths
Number of Pixels in Spectrum: 2068
>>>>>Begin Spectral Data<<<<<
179.565	1370.65
179.642	1434.34
179.718	1484.63
179.795	1530.16
179.871	1567.28
179.948	1590.97
180.024	1614.04
180.101	1641.1
180.177	1658.58
180.254	1686.39
180.33	1711.94
180.407	1777.72
180.483	1884.67
180.56	1988.5
180.636	2086.7
180.712	2073.61
180.789	2087.22
180.865	2103.2
180.942	2113.18
181.018	2121.41
181.095	2135.26
181.171	2138.54
181.248	2139.83
181.324	2158.15
181.4	2167.28
181.477	2178.56
181.553	2194.4
181.63	2219.05
181.706	2235.51
181.782	2245.64
181.859	2244.36
181.935	2250.07
182.011	2248.02
182.088	2267.96
182.164	2285.67
182.24	2299.09
182.317	2307.13
182.393	2306.08
182.469	2318.03
182.546	2335.26
182.622	2341.06
182.698	2335.35
182.775	2349.63
182.851	2365.38
182.927	2356.63
183.003	2350.77
183.08	2346.49
183.156	2350.68
183.232	2344.73
183.308	2333.4
183.385	2341.54
183.461	2359.24
183.537	2357.58
183.613	2371.24
183.69	2361.48
183.766	2352.29
183.842	2360.19
183.918	2367.48
183.995	2384.57
184.071	2389.33
184.147	2380.85
184.223	2369.29
184.299	2386.15
184.375	2374.25
184.452	2380.49
184.528	2431.77
184.604	2442.19
184.68	2453.42
184.756	2462.18
184.832	2468.56
184.908	2475.46
184.985	2473.46
185.061	2455.85
185.137	2469.14
185.213	2458.09
185.289	2458.47
185.365	2450.76
185.441	2450.48
185.517	2464.43
185.593	2458.05
185.669	2452.67
185.745	2464.86
185.822	2483.51
185.898	2472.04
185.974	2484.22
186.05	2476.93
186.126	2442.56
186.202	2435.04
186.278	2431.18
186.354	2422.8
186.43	2429.09
186.506	2425.04
186.582	2426.09
186.658	2437.99
186.734	2411.67
186.81	2415.57
186.886	2419.71
186.962	2436.95
187.038	2430.23
187.114	2421.47
187.19	2428.42
187.266	2420.33
187.341	2422.23
187.417	2414.9
187.493	2417.24
187.569	2418.24
187.645	2410.1
187.721	2396.95
187.797	2407.33
187.873	2413
187.949	2407.09
188.025	2398.28
188.101	2402.09
188.176	2408.85
188.252	2400.95
188.328	2415.37
188.404	2413.7
188.48	2408.56
188.556	2401.37
188.632	2402.99
188.707	2402.61
188.783	2398.32
188.859	2392.85
188.935	2379.95
189.011	2389.42
189.086	2381.33
189.162	2373.19
189.238	2373.52
189.314	2372.24
189.39	2364.19
189.465	2353.57
189.541	2372.1
189.617	2357.2
189.693	2353.06
189.768	2353.15
189.844	2380.63
189.92	2367.12
189.996	2374.93
190.071	2385.26
190.147	2378.55
190.223	2388.64
190.298	2380.21
190.374	2368.5
190.45	2383.07
190.526	2392.21
190.601	2383.78
190.677	2386.11
190.753	2419.51
190.828	2423.98
190.904	2439.08
190.98	2454.41
191.055	2470.88
191.131	2459.74
191.207	2482.16
191.282	2493.63
191.358	2486.35
191.433	2468.34
191.509	2485.23
191.585	2482.8
191.66	2486.28
191.736	2497.13
191.811	2488.37
191.887	2509
191.963	2532.99
192.038	2535.71
192.114	2538.09
192.189	2541.23
192.265	2537.04
192.34	2510.12
192.416	2504.79
192.491	2506.22
192.567	2509.79
192.642	2510.7
192.718	2512.89
192.793	2499.65
192.869	2490.23
192.944	2491.32
193.02	2499.7
193.095	2503.46
193.171	2509.7
193.246	2508.61
193.322	2505.85
193.397	2503.18
193.473	2487.03
193.548	2467.55
193.624	2474.46
193.699	2470.6
193.775	2489.65
193.85	2493.37
193.925	2504.03
194.001	2505.89
194.076	2490.37
194.152	2481.7
194.227	2472.65
194.302	2463.27
194.378	2468.27
194.453	2470.03
194.529	2481.6
194.604	2466.65
194.679	2463.08
194.755	2445.61
194.83	2457.9
194.905	2455.47
194.981	2470.28
195.056	2462.38
195.131	2468.19
195.207	2466.57
195.282	2456.81
195.357	2436.8
195.433	2451.37
195.508	2438.61
195.583	2445.7
195.659	2462.42
195.734	2468.99
195.809	2469.8
195.884	2478.7
195.96	2479.75
196.035	2495.18
196.11	2493.18
196.185	2506.94
196.261	2508.46
196.336	2539.42
196.411	2525.03
196.486	2531.46
196.561	2519.46
196.637	2530.5
196.712	2550.08
196.787	2555.32
196.862	2571.6
196.937	2583.18
197.013	2588.08
197.088	2600.18
197.163	2624.81
197.238	2644.93
197.313	2643.55
197.388	2657.88
197.464	2689
197.539	2699.91
197.614	2690.81
197.689	2703.72
197.764	2720.92
197.839	2745.03
197.914	2737.45
197.989	2763.62
198.065	2777.15
198.14	2833.31
198.215	2860.28
198.29	2873.92
198.365	2891.46
198.44	2904.33
198.515	2936.46
198.59	2957.91
198.665	2985.99
198.74	2995.29
198.815	2995.34
198.89	3019.79
198.965	3052.27
199.04	3050.75
199.115	3072.48
199.19	3121.78
199.265	3124.88
199.34	3136.52
199.415	3173.69
199.49	3200.96
199.565	3209.21
199.64	3238.16
199.715	3235.25
199.79	3244.65
199.865	3252.23
199.94	3244.89
200.015	3280.72
200.09	3284.49
200.165	3292.13
200.24	3297.52
200.315	3341.07
200.39	3356.48
200.464	3365.36
200.539	3370.56
200.614	3386.68
200.689	3411.65
200.764	3417.52
200.839	3437.45
200.914	3443.61
200.989	3431.86
201.063	3445.08
201.138	3425.29
201.213	3425.72
201.288	3403.11
201.363	3407.78
201.438	3407.5
201.512	3423.81
201.587	3403.38
201.662	3409.01
201.737	3419.37
201.812	3431.64
201.886	3399.25
201.961	3410.95
202.036	3398.21
202.111	3392.53
202.186	3362.73
202.26	3343.68
202.335	3319.15
202.41	3313.14
202.485	3292.63
202.559	3268.39
202.634	3241.72
202.709	3255.31
202.784	3237.18
202.858	3242.19
202.933	3223.49
203.008	3218.86
203.082	3200.74
203.157	3203.36
203.232	3162.21
203.306	3147.27
203.381	3114.92
203.456	3096.75
203.53	3081.66
203.605	3070.74
203.68	3053.66
203.754	3053.95
203.829	3049.94
203.904	3040.83
203.978	3043.94
204.053	3066.59
204.127	3070.98
204.202	3087.15
204.277	3089.49
204.351	3100.36
204.426	3118.4
204.5	3137.19
204.575	3127.18
204.65	3169.79
204.724	3190.08
204.799	3227.99
204.873	3252.57
204.948	3287.31
205.022	3306.44
205.097	3331.99
205.171	3385.92
205.246	3435.77
205.32	3479.61
205.395	3521.25
205.469	3558.42
205.544	3613.32
205.618	3644.89
205.693	3712.86
205.767	3755.42
205.842	3834.75
205.916	3886.45
205.991	3932.71
206.065	4002.6
206.14	4082.1
206.214	4143.09
206.289	4210.25
206.363	4296.24
206.438	4374.57
206.512	4461.42
206.586	4561.7
206.661	4652.28
206.735	4714.88
206.81	4807.42
206.884	4916.09
206.958	4995.91
207.033	5110.87
207.107	5214.89
207.181	5346.54
207.256	5442.55
207.33	5565.21
207.405	5682.37
207.479	5808.96
207.553	5927.4
207.628	6014.39
207.702	6144.84
207.776	6255.65
207.851	6372.38
207.925	6503.94
207.999	6618.22
208.073	6733.33
208.148	6863.46
208.222	6975.97
208.296	7133.86
208.371	7278.08
208.445	7412.04
208.519	7576.85
208.593	7718.19
208.668	7838.8
208.742	7970.08
208.816	8096.74
208.89	8239.19
208.965	8365.08
209.039	8500.19
209.113	8651.29
209.187	8805.38
209.261	8928.05
209.336	9081.32
209.41	9232.77
209.484	9364.08
209.558	9526.69
209.632	9674.37
209.707	9821.07
209.781	9981.4
209.855	10131.84
209.929	10276.96
210.003	10418.88
210.077	10540.63
210.151	10725.71
210.226	10897.63
210.3	11060.56
210.374	11215.04
210.448	11353.49
210.522	11499.37
210.596	11648.19
210.67	11781.88
210.744	11961.17
210.818	12127.54
210.892	12276.34
210.966	12398.72
211.041	12542.07
211.115	12662.86
211.189	12814.22
211.263	12952.71
211.337	13079.97
211.411	13218.99
211.485	13335.27
211.559	13466.82
211.633	13597.16
211.707	13680.8
211.781	13811.29
211.855	13892.66
211.929	14016.65
212.003	14114.41
212.077	14237.38
212.151	14359.1
212.225	14487.18
212.299	14591.78
212.373	14685.93
212.447	14791.25
212.52	14934.46
212.594	15045.86
212.668	15168.44
212.742	15260.7
212.816	15353.58
212.89	15454.76
212.964	15558.68
213.038	15663.61
213.112	15784.21
213.186	15896.47
213.26	15977.68
213.333	16024.73
213.407	16126.96
213.481	16212.32
213.555	16319.27
213.629	16394.32
213.703	16474.47
213.777	16572.16
213.85	16647.44
213.924	16780.03
213.998	16873.09
214.072	16952.47
214.146	17032.18
214.219	17105.77
214.293	17187.66
214.367	17281.39
214.441	17385.83
214.515	17452.57
214.588	17516.82
214.662	17561.25
214.736	17628.33
214.81	17713.06
214.883	17800.82
214.957	17873.44
215.031	17946.36
215.105	17998.89
215.178	18066.98
215.252	18132.71
215.326	18173.92
215.4	18222.11
215.473	18232.18
215.547	18277.19
215.621	18328.75
215.694	18400.32
215.768	18449.86
215.842	18500.36
215.915	18542.96
215.989	18561.8
216.063	18609.22
216.136	18660.93
216.21	18716.49
216.284	18788.39
216.357	18852.43
216.431	18905.2
216.504	18973.29
216.578	19060.71
216.652	19130.2
216.725	19189.67
216.799	19254.72
216.873	19305.76
216.946	19370.48
217.02	19429.75
217.093	19482.76
217.167	19518.56
217.24	19550.61
217.314	19592.87
217.387	19633.11
217.461	19682.22
217.535	19755.9
217.608	19795.47
217.682	19859.46
217.755	19922.74
217.829	19952.95
217.902	19985.92
217.976	20032.08
218.049	20062.15
218.123	20081.62
218.196	20127.07
218.27	20174.59
218.343	20196.66
218.417	20240.95
218.49	20294.49
218.563	20357.53
218.637	20404.9
218.71	20468.71
218.784	20518.3
218.857	20570.54
218.931	20626.92
219.004	20679.07
219.077	20723.89
219.151	20773.34
219.224	20805.29
219.298	20845.49
219.371	20900.09
219.444	20953.3
219.518	21004
219.591	21041.06
219.665	21114.13
219.738	21153.89
219.811	21178.76
219.885	21241.61
219.958	21294.29
220.031	21327.36
220.105	21359.07
220.178	21399.7
220.251	21436.53
220.325	21484.2
220.398	21535
220.471	21586.67
220.544	21630.05
220.618	21656.46
220.691	21704.23
220.764	21734.55
220.838	21766.36
220.911	21784.2
220.984	21824.78
221.057	21859.39
221.131	21908.9
221.204	21908.32
221.277	21966.89
221.35	22033.12
221.424	22051.29
221.497	22082
221.57	22107.45
221.643	22152.04
221.716	22188.29
221.79	22203.28
221.863	22237.08
221.936	22256.41
222.009	22280.95
222.082	22295.22
222.155	22314.31
222.229	22343.95
222.302	22378.42
222.375	22403.3
222.448	22443.26
222.521	22466.11
222.594	22492.34
222.667	22495.38
222.74	22529.6
222.814	22542.82
222.887	22562.92
222.96	22603.47
223.033	22636.83
223.106	22658.38
223.179	22680.9
223.252	22701.05
223.325	22725.64
223.398	22740.39
223.471	22751.62
223.544	22764.11
223.617	22794.15
223.69	22816.9
223.763	22825.44
223.837	22840.53
223.91	22865.74
223.983	22862.61
224.056	22859.57
224.129	22871.38
224.202	22901.32
224.275	22904.7
224.348	22899.11
224.42	22887.53
224.493	22873.26
224.566	22867.81
224.639	22880.3
224.712	22878.66
224.785	22874.95
224.858	22887.05
224.931	22881.17
225.004	22884.59
225.077	22883.14
225.15	22857.35
225.223	22862.94
225.296	22897.71
225.369	22884.5
225.442	22875.58
225.514	22873.27
225.587	22886.81
225.66	22883.54
225.733	22882.91
225.806	22884.98
225.879	22885.03
225.952	22870.71
226.025	22888.36
226.097	22906.1
226.17	22903.4
226.243	22880.5
226.316	22878.04
226.389	22874.38
226.461	22877.61
226.534	22880.98
226.607	22879.87
226.68	22911.16
226.753	22908.56
226.825	22875.82
226.898	22895.59
226.971	22887.2
227.044	22897.18
227.117	22899.15
227.189	22904.46
227.262	22906.48
227.335	22900.36
227.407	22891.58
227.48	22892.45
227.553	22888.79
227.626	22885.61
227.698	22881.27
227.771	22881.03
227.844	22874.32
227.916	22861.31
227.989	22838.21
228.062	22830.06
228.134	22840.96
228.207	22823.27
228.28	22798.1
228.352	22780.6
228.425	22759.14
228.498	22760.68
228.57	22740.34
228.643	22731.37
228.716	22718.74
228.788	22700.9
228.861	22692.56
228.934	22699.5
229.006	22691.55
229.079	22669.8
229.151	22641.11
229.224	22613.83
229.296	22609.2
229.369	22624.87
229.442	22629.5
229.514	22618.7
229.587	22617.78
229.659	22589.92
229.732	22584.52
229.804	22592.33
229.877	22610.07
229.949	22618.36
230.022	22626.32
230.094	22620.82
230.167	22619.04
230.239	22594.74
230.312	22582.21
230.384	22597.1
230.457	22588.57
230.529	22579.46
230.602	22575.79
230.674	22573.72
230.747	22577.72
230.819	22583.89
230.892	22535.88
230.964	22523.49
231.037	22518.23
231.109	22504.64
231.181	22499.38
231.254	22467.66
231.326	22454.64
231.399	22437.09
231.471	22406.96
231.544	22363.77
231.616	22352.05
231.688	22325.44
231.761	22313.73
231.833	22287.26
231.905	22233.8
231.978	22208.2
232.05	22190.12
232.122	22169.2
232.195	22144.57
232.267	22146.64
232.339	22122.39
232.412	22128.76
232.484	22105.13
232.556	22073.75
232.629	22078.82
232.701	22063.29
232.773	22048.11
232.846	22018.71
232.918	21981.25
232.99	21963.37
233.062	21959.51
233.135	21943.46
233.207	21912.08
233.279	21884.89
233.351	21875.11
233.424	21849.8
233.496	21818.13
233.568	21815.58
233.64	21787.09
233.713	21757.74
233.785	21719.22
233.857	21688.42
233.929	21637.86
234.001	21636.89
234.074	21631.78
234.146	21580.01
234.218	21556.88
234.29	21533.07
234.362	21498.61
234.434	21466.02
234.507	21422.89
234.579	21378.11
234.651	21345.91
234.723	21325.09
234.795	21305.57
234.867	21281.09
234.939	21277.47
235.012	21254.05
235.084	21228.79
235.156	21195.2
235.228	21162.81
235.3	21132.4
235.372	21109.5
235.444	21094.66
235.516	21032.92
235.588	21008.14
235.66	20981.63
235.732	20937.54
235.804	20969.83
235.876	20957.01
235.948	20942.41
236.02	20918.02
236.092	20883.95
236.164	20850.31
236.236	20813.44
236.308	20783.61
236.38	20751.36
236.452	20704.47
236.524	20679.41
236.596	20662.2
236.668	20653.43
236.74	20623.46
236.812	20595.6
236.884	20561.58
236.956	20539.5
237.028	20503.99
237.1	20455.31
237.172	20442.88
237.244	20433.48
237.316	20351.69
237.388	20308.03
237.46	20270
237.532	20255.07
237.604	20219.98
237.675	20214.58
237.747	20201.43
237.819	20167.45
237.891	20134.15
237.963	20103.31
238.035	20067.12
238.107	19994.93
238.178	19958.06
238.25	19926.64
238.322	19914.02
238.394	19867.7
238.466	19825.25
238.538	19798.41
238.609	19777.3
238.681	19723.61
238.753	19676.68
238.825	19650.03
238.897	19623.43
238.968	19607.47
239.04	19566.99
239.112	19564.39
239.184	19507.72
239.255	19465.7
239.327	19430.71
239.399	19396.5
239.471	19370.52
239.542	19340.12
239.614	19316.65
239.686	19264.89
239.758	19240.22
239.829	19180.9
239.901	19164.66
239.973	19125.09
240.044	19093.34
240.116	19052.76
240.188	19009.15
240.259	18976.86
240.331	18934.02
240.403	18903.76
240.474	18848.92
240.546	18803.38
240.618	18741.5
240.689	18699.48
240.761	18664.45
240.833	18645.56
240.904	18607.49
240.976	18565.9
241.048	18531.78
241.119	18509.37
241.191	18477.66
241.262	18462.67
241.334	18436.94
241.405	18399.64
241.477	18363.74
241.549	18323.36
241.62	18293
241.692	18275.26
241.763	18249.63
241.835	18213.72
241.906	18179.7
241.978	18131.9
242.049	18112.86
242.121	18085.68
242.192	18065.73
242.264	18012.24
242.335	17963.47
242.407	17941.97
242.478	17901.25
242.55	17871.37
242.621	17829.25
242.693	17797.69
242.764	17747.57
242.836	17711.23
242.907	17682.03
242.979	17656.39
243.05	17628.68
243.122	17599.48
243.193	17556.87
243.264	17492.15
243.336	17446.03
243.407	17412.2
243.479	17398.13
243.55	17366.27
243.622	17339.86
243.693	17301.26
243.764	17287.91
243.836	17239.33
243.907	17195.72
243.978	17163.96
244.05	17137.45
244.121	17083.42
244.192	17061.21
244.264	17005.16
244.335	16966.46
244.407	16905.1
244.478	16868.38
244.549	16826.45
244.62	16774.21
244.692	16730.15
244.763	16714.39
244.834	16682.59
244.906	16655.89
244.977	16626.68
245.048	16606.24
245.119	16560.8
245.191	16519.44
245.262	16458.09
245.333	16449.65
245.405	16413.65
245.476	16387.24
245.547	16351.19
245.618	16333.35
245.689	16296.2
245.761	16281.54
245.832	16252.67
245.903	16239.8
245.974	16210.02
246.045	16178.3
246.117	16167.17
246.188	16125.96
246.259	16080.89
246.33	16050.43
246.401	16006.62
246.473	15958.42
246.544	15914.85
246.615	15896.58
246.686	15863.66
246.757	15853.15
246.828	15803.17
246.899	15785.72
246.97	15734.48
247.042	15692.6
247.113	15660.98
247.184	15648.4
247.255	15600.68
247.326	15559.57
247.397	15518.93
247.468	15491.17
247.539	15466.39
247.61	15425.23
247.681	15417.66
247.752	15400.65
247.823	15354.95
247.894	15324.73
247.965	15280.53
248.037	15243.89
248.108	15201.04
248.179	15166.67
248.25	15129.36
248.321	15103.48
248.392	15062.02
248.463	15058.12
248.534	15022.4
248.605	15006.98
248.675	14970.83
248.746	14947.78
248.817	14924.74
248.888	14908.64
248.959	14861.21
249.03	14834.7
249.101	14809.63
249.172	14767.7
249.243	14720.02
249.314	14719.15
249.385	14697.32
249.456	14681.46
249.527	14654.8
249.598	14631.37
249.669	14606.21
249.739	14586.11
249.81	14568.51
249.881	14529.32
249.952	14504.35
250.023	14475.53
250.094	14428.72
250.165	14396.57
250.235	14370.73
250.306	14349.33
250.377	14309.94
250.448	14288.49
250.519	14246.6
250.59	14230.55
250.66	14200.51
250.731	14193.28
250.802	14160.7
250.873	14133.03
250.944	14106.42
251.014	14075.18
251.085	14073.25
251.156	14044.91
251.227	14033.34
251.297	14015.69
251.368	14007.5
251.439	13993.95
251.51	13989.42
251.58	13961.94
251.651	13930.42
251.722	13920.49
251.792	13880.67
251.863	13848.03
251.934	13842.2
252.005	13840.9
252.075	13809.08
252.146	13798.14
252.217	13782.09
252.287	13765.45
252.358	13739.04
252.429	13738.75
252.499	13707.41
252.57	13690.93
252.641	13688.95
252.711	13663.88
252.782	13629.46
252.852	13626.09
252.923	13591.72
252.994	13567.04
253.064	13551.71
253.135	13509.24
253.205	13478.34
253.276	13473.9
253.347	13473.47
253.417	13444.74
253.488	13414.12
253.558	13392.82
253.629	13366.4
253.699	13349.09
253.77	13338.2
253.841	13309.56
253.911	13284.93
253.982	13266.76
254.052	13249.11
254.123	13232.63
254.193	13210.84
254.264	13231.66
254.334	13192.62
254.405	13163.02
254.475	13127.97
254.546	13103.53
254.616	13111.1
254.687	13095.43
254.757	13078.7
254.827	13048
254.898	13023.65
254.968	13006.15
255.039	12975.98
255.109	12965.23
255.18	12933.41
255.25	12883.62
255.321	12869.59
255.391	12841.29
255.461	12842.16
255.532	12786.72
255.602	12752.98
255.673	12712.29
255.743	12668.81
255.813	12615.69
255.884	12612.99
255.954	12599.73
256.024	12598.05
256.095	12573.51
256.165	12536.92
256.235	12521.79
256.306	12497.01
256.376	12489.01
256.446	12481.39
256.517	12468.81
256.587	12461.39
256.657	12447.36
256.728	12436.9
256.798	12418.63
256.868	12383.39
256.938	12352.35
257.009	12347.38
257.079	12344.2
257.149	12349.36
257.219	12311.42
257.29	12307.76
257.36	12258.11
257.43	12249.1
257.5	12205.52
257.571	12178.43
257.641	12168.89
257.711	12134.28
257.781	12128.5
257.852	12116.44
257.922	12070.65
257.992	12048.96
258.062	12021.58
258.132	12010.54
258.202	11989.53
258.273	11975.26
258.343	11985.29
258.413	11955.5
258.483	11930.96
258.553	11887.39
258.623	11858.81
258.693	11847.19
258.764	11845.02
258.834	11844.88
258.904	11828.3
258.974	11809.11
259.044	11790.32
259.114	11773.59
259.184	11755.52
259.254	11725.97
259.324	11680.33
259.394	11673.24
259.464	11676.52
259.535	11653.62
259.605	11620.22
259.675	11588.12
259.745	11572.12
259.815	11536.5
259.885	11513.23
259.955	11529.28
260.025	11512.07
260.095	11492.12
260.165	11479.15
260.235	11475.63
260.305	11447.44
260.375	11420.35
260.445	11418.57
260.515	11417.08
260.585	11411.29
260.655	11397.56
260.725	11395.53
260.795	11392.11
260.865	11389.75
260.934	11362.76
261.004	11357.7
261.074	11348.2
261.144	11351.96
261.214	11349.65
261.284	11327.62
261.354	11329.12
261.424	11295.62
261.494	11290.66
261.564	11276.1
261.634	11268.73
261.703	11234.75
261.773	11228.44
261.843	11219.67
261.913	11206.03
