Data from 20250703_urea_0.1M_MAYP1162681_06-21-05-204.txt Node
Date: Fri Jul 04 06:21:05 BST 2025
User: adleo
Spectrometer: MAYP116268
Trigger mode: 0
Integration Time (sec): 1.000000E0
Scans to average: 1
Electric dark correction enabled: true
Nonlinearity correction enabled: true
Boxcar width: 10
XAxis mode: Wavelengths
Number of Pixels in Spectrum: 2068
>>>>>Begin Spectral Data<<<<<
179.565	1264.5
179.642	1320.18
179.718	1371.21
179.795	1411.38
179.871	1443.8
179.948	1461.62
180.024	1482.98
180.101	1506.96
180.177	1521.64
180.254	1544.79
180.33	1568.01
180.407	1628.6
180.483	1729.28
180.56	1825.59
180.636	1909.9
180.712	1899.01
180.789	1907.71
180.865	1919.31
180.942	1924.54
181.018	1935.14
181.095	1948.98
181.171	1955.83
181.248	1957.82
181.324	1972.76
181.4	1979.13
181.477	1992.35
181.553	2006.23
181.63	2025.5
181.706	2041.1
181.782	2049.89
181.859	2048.51
181.935	2052.32
182.011	2046.99
182.088	2061.92
182.164	2079.58
182.24	2094.65
182.317	2101.88
182.393	2101.69
182.469	2116.86
182.546	2129.7
182.622	2134.27
182.698	2126.8
182.775	2136.55
182.851	2151.01
182.927	2139.97
183.003	2136.83
183.08	2131.22
183.156	2142.11
183.232	2140.16
183.308	2127.46
183.385	2137.36
183.461	2156.72
183.537	2160.05
183.613	2172.18
183.69	2164.52
183.766	2152.19
183.842	2162.33
183.918	2168.04
183.995	2182.07
184.071	2186.26
184.147	2181.45
184.223	2171.23
184.299	2185.74
184.375	2173.47
184.452	2181.71
184.528	2236.29
184.604	2245.76
184.68	2255.7
184.756	2261.27
184.832	2269.69
184.908	2276.16
184.985	2272.5
185.061	2255.89
185.137	2264.03
185.213	2253.37
185.289	2254.75
185.365	2247.95
185.441	2245.76
185.517	2257.14
185.593	2253.47
185.669	2252.29
185.745	2266.8
185.822	2283.73
185.898	2274.02
185.974	2282.77
186.05	2275.87
186.126	2236.22
186.202	2230.85
186.278	2227.66
186.354	2219.38
186.43	2223.71
186.506	2221.9
186.582	2223.38
186.658	2228.94
186.734	2207.16
186.81	2208.39
186.886	2209.73
186.962	2225.43
187.038	2224.43
187.114	2215.43
187.19	2218.43
187.266	2206.49
187.341	2205.58
187.417	2199.11
187.493	2198.68
187.569	2203.78
187.645	2194.07
187.721	2181.36
187.797	2189.45
187.873	2192.97
187.949	2188.03
188.025	2180.84
188.101	2184.41
188.176	2190.78
188.252	2187.12
188.328	2195.73
188.404	2195.44
188.48	2191.06
188.556	2181.31
188.632	2179.22
188.707	2185.55
188.783	2184.5
188.859	2178.89
188.935	2170.27
189.011	2178.41
189.086	2174.27
189.162	2165.09
189.238	2162.95
189.314	2163.19
189.39	2154.43
189.465	2147.06
189.541	2160.95
189.617	2145.73
189.693	2138.5
189.768	2142.31
189.844	2170.82
189.92	2164.5
189.996	2175.34
190.071	2185.19
190.147	2186.95
190.223	2195.95
190.298	2185.76
190.374	2170.35
190.45	2184.62
190.526	2192.99
190.601	2185.95
190.677	2186.57
190.753	2214.13
190.828	2219.36
190.904	2236.64
190.98	2254.58
191.055	2265.86
191.131	2258.86
191.207	2281.27
191.282	2295.11
191.358	2281.74
191.433	2265.46
191.509	2280.35
191.585	2276.06
191.66	2278.73
191.736	2284.92
191.811	2276.02
191.887	2291.34
191.963	2320.28
192.038	2324.27
192.114	2323.42
192.189	2326.7
192.265	2322.52
192.34	2299.38
192.416	2299.81
192.491	2291.43
192.567	2294.09
192.642	2296.62
192.718	2295.24
192.793	2282.81
192.869	2277.2
192.944	2282.72
193.02	2289.62
193.095	2290.05
193.171	2296.81
193.246	2297.66
193.322	2295.52
193.397	2299.04
193.473	2283.81
193.548	2264.06
193.624	2269.67
193.699	2268.25
193.775	2285.15
193.85	2286.86
193.925	2297.52
194.001	2295.47
194.076	2289.9
194.152	2277.77
194.227	2268.53
194.302	2258.97
194.378	2259.78
194.453	2255.6
194.529	2265.49
194.604	2248.93
194.679	2244.94
194.755	2225.38
194.83	2237.24
194.905	2236.38
194.981	2241.71
195.056	2235.96
195.131	2241.95
195.207	2242.57
195.282	2231.63
195.357	2209.4
195.433	2226.81
195.508	2216.11
195.583	2221.53
195.659	2237.19
195.734	2245.85
195.809	2247.14
195.884	2259.03
195.96	2260.6
196.035	2278.68
196.11	2274.97
196.185	2288.96
196.261	2292.72
196.336	2323.56
196.411	2307.7
196.486	2310.13
196.561	2303.94
196.637	2313.94
196.712	2329.89
196.787	2331.03
196.862	2347.83
196.937	2363.2
197.013	2364.63
197.088	2373.57
197.163	2396.95
197.238	2413.82
197.313	2412.77
197.388	2426.24
197.464	2455.39
197.539	2466.43
197.614	2458.43
197.689	2471.62
197.764	2487.91
197.839	2508.19
197.914	2503.29
197.989	2527
198.065	2542.33
198.14	2594.32
198.215	2619.94
198.29	2630.86
198.365	2644.48
198.44	2653.72
198.515	2681.11
198.59	2700.83
198.665	2730.08
198.74	2741.24
198.815	2745.05
198.89	2768.2
198.965	2799.61
199.04	2794.32
199.115	2810.23
199.19	2851.54
199.265	2855.25
199.34	2864.5
199.415	2898.31
199.49	2918.27
199.565	2929.9
199.64	2956.74
199.715	2954.21
199.79	2965.32
199.865	2973.76
199.94	2973.66
200.015	3006.56
200.09	3010.99
200.165	3018.14
200.24	3026.01
200.315	3065.14
200.39	3076.97
200.464	3085.08
200.539	3086.27
200.614	3103.96
200.689	3130.85
200.764	3138.92
200.839	3156.79
200.914	3164.66
200.989	3154.92
201.063	3171.8
201.138	3151.84
201.213	3149.36
201.288	3129.38
201.363	3132.33
201.438	3131.62
201.512	3147.49
201.587	3131.56
201.662	3135.57
201.737	3149.88
201.812	3157.89
201.886	3124.48
201.961	3136.93
202.036	3122.82
202.111	3122.2
202.186	3093.8
202.26	3073.67
202.335	3055.88
202.41	3050.64
202.485	3031.81
202.559	3012.69
202.634	2983.41
202.709	2994.94
202.784	2976.59
202.858	2978.07
202.933	2962.62
203.008	2959.71
203.082	2944.89
203.157	2946.99
203.232	2909.43
203.306	2892.98
203.381	2864.47
203.456	2845.69
203.53	2829.08
203.605	2816.98
203.68	2797.53
203.754	2800.43
203.829	2795.62
203.904	2781.61
203.978	2782.13
204.053	2799.34
204.127	2798.58
204.202	2811.78
204.277	2809.16
204.351	2819.12
204.426	2827.8
204.5	2836.47
204.575	2821.56
204.65	2851.74
204.724	2864.34
204.799	2893.44
204.873	2909.47
204.948	2934.45
205.022	2952.09
205.097	2967.36
205.171	3011.03
205.246	3051.15
205.32	3082.27
205.395	3117.96
205.469	3150
205.544	3191.47
205.618	3211.41
205.693	3261.32
205.767	3291.57
205.842	3358.59
205.916	3397.39
205.991	3437.1
206.065	3494.4
206.14	3561.16
206.214	3609.56
206.289	3661.11
206.363	3728.21
206.438	3789.14
206.512	3856.95
206.586	3936.51
206.661	4006.45
206.735	4047.49
206.81	4117.42
206.884	4199.93
206.958	4258.26
207.033	4344.76
207.107	4428.23
207.181	4534.8
207.256	4609.02
207.33	4709.42
207.405	4802.59
207.479	4902.31
207.553	4991.31
207.628	5053.36
207.702	5144.01
207.776	5224.65
207.851	5313.25
207.925	5420.24
207.999	5511.61
208.073	5599.3
208.148	5692.61
208.222	5778.94
208.296	5912.76
208.371	6027.13
208.445	6136.96
208.519	6260.27
208.593	6368.26
208.668	6463.71
208.742	6567.7
208.816	6667.98
208.89	6778.22
208.965	6875.04
209.039	6984.2
209.113	7103.1
209.187	7224.75
209.261	7324.25
209.336	7446.23
209.41	7565.88
209.484	7670.66
209.558	7790
209.632	7905.74
209.707	8022.56
209.781	8144.53
209.855	8258.74
209.929	8373.04
210.003	8472.97
210.077	8573.64
210.151	8722.04
210.226	8857.11
210.3	8988.36
210.374	9118.17
210.448	9223.51
210.522	9337.19
210.596	9449.81
210.67	9555.31
210.744	9702.77
210.818	9839.47
210.892	9961.24
210.966	10055.92
211.041	10165.75
211.115	10259
211.189	10377.51
211.263	10487.64
211.337	10587.6
211.411	10691.34
211.485	10778.89
211.559	10892.31
211.633	10984.82
211.707	11050.07
211.781	11146.84
211.855	11202.12
211.929	11278.84
212.003	11348.52
212.077	11448.24
212.151	11541.88
212.225	11648.01
212.299	11726.77
212.373	11803.26
212.447	11877.73
212.52	11994.47
212.594	12087.06
212.668	12179.99
212.742	12252.49
212.816	12333.23
212.89	12413.49
212.964	12499.82
213.038	12589.19
213.112	12683.62
213.186	12781.48
213.26	12840.34
213.333	12874.18
213.407	12951.54
213.481	13036.82
213.555	13134.38
213.629	13200.14
213.703	13266.04
213.777	13345.05
213.85	13402.8
213.924	13514.97
213.998	13598.56
214.072	13666.97
214.146	13719.94
214.219	13801.56
214.293	13876.57
214.367	13943.72
214.441	14023.98
214.515	14090.99
214.588	14137.84
214.662	14169.56
214.736	14219.36
214.81	14293.64
214.883	14371.69
214.957	14438.31
215.031	14491.38
215.105	14534.67
215.178	14584.85
215.252	14645.93
215.326	14676.54
215.4	14717.8
215.473	14725.13
215.547	14765.24
215.621	14810.4
215.694	14874.61
215.768	14906.13
215.842	14949.81
215.915	15000.32
215.989	15037.92
216.063	15075.23
216.136	15129.84
216.21	15189.04
216.284	15260.18
216.357	15318.27
216.431	15380.88
216.504	15440.07
216.578	15520.32
216.652	15583.57
216.725	15634.13
216.799	15701.94
216.873	15755.01
216.946	15825.19
217.02	15875.23
217.093	15919.09
217.167	15946.85
217.24	15984.45
217.314	16030.43
217.387	16073.66
217.461	16117.52
217.535	16178.06
217.608	16224.24
217.682	16272.91
217.755	16335.62
217.829	16370.95
217.902	16411.72
217.976	16449.94
218.049	16491.15
218.123	16526.33
218.196	16579.25
218.27	16623.4
218.343	16643.16
218.417	16693
218.49	16730.15
218.563	16797.77
218.637	16858.74
218.71	16926.98
218.784	16977.73
218.857	17038.65
218.931	17085.78
219.004	17130.36
219.077	17187.86
219.151	17234.61
219.224	17284.82
219.298	17324.73
219.371	17387.96
219.444	17429.98
219.518	17476.68
219.591	17519.96
219.665	17588.73
219.738	17631.38
219.811	17667.23
219.885	17731.09
219.958	17781.5
220.031	17821.4
220.105	17864.77
220.178	17902.31
220.251	17941.73
220.325	18008.19
220.398	18057.1
220.471	18121.34
220.544	18181.82
220.618	18205.77
220.691	18260.76
220.764	18314.25
220.838	18365.57
220.911	18399.83
220.984	18458.14
221.057	18506.72
221.131	18548.93
221.204	18553.32
221.277	18616.79
221.35	18689.41
221.424	18727.04
221.497	18773.55
221.57	18816.77
221.643	18865.49
221.716	18922.84
221.79	18958.98
221.863	18981.05
221.936	19013
222.009	19042.25
222.082	19079.31
222.155	19116.32
222.229	19164.46
222.302	19195.64
222.375	19228.84
222.448	19269.13
222.521	19308.84
222.594	19342.57
222.667	19378.23
222.74	19428.4
222.814	19454.9
222.887	19481.02
222.96	19518.42
223.033	19569.45
223.106	19612.82
223.179	19646.94
223.252	19668.43
223.325	19705.35
223.398	19744.43
223.471	19775.9
223.544	19796.86
223.617	19816.14
223.69	19848.47
223.763	19862.45
223.837	19899.85
223.91	19930.88
223.983	19939.75
224.056	19943.07
224.129	19961.58
224.202	19990.78
224.275	20013.24
224.348	20020.76
224.42	20030.11
224.493	20037.04
224.566	20040.9
224.639	20061.72
224.712	20069.62
224.785	20083.26
224.858	20092.47
224.931	20107.55
225.004	20116.9
225.077	20137.72
225.15	20135.5
225.223	20151.07
225.296	20188.61
225.369	20174.54
225.442	20178.25
225.514	20198.63
225.587	20225.72
225.66	20252.9
225.733	20262.82
225.806	20272.94
225.879	20284.03
225.952	20293.76
226.025	20319.59
226.097	20337.33
226.17	20351.74
226.243	20348.32
226.316	20355.69
226.389	20379.35
226.461	20398.2
226.534	20414.77
226.607	20429.76
226.68	20470.63
226.753	20471.88
226.825	20452.41
226.898	20485.71
226.971	20496.17
227.044	20515.3
227.117	20525.95
227.189	20531.74
227.262	20552.94
227.335	20566.53
227.407	20577.04
227.48	20588.51
227.553	20604.94
227.626	20617.52
227.698	20619.02
227.771	20631.31
227.844	20630.78
227.916	20638.49
227.989	20613.52
228.062	20622
228.134	20645.96
228.207	20644.99
228.28	20655.55
228.352	20663.16
228.425	20664.46
228.498	20682.78
228.57	20665.23
228.643	20680.71
228.716	20675.74
228.788	20673.28
228.861	20667.31
228.934	20686.3
229.006	20687.84
229.079	20678.15
229.151	20669.52
229.224	20661.19
229.296	20666.97
229.369	20695.65
229.442	20702.59
229.514	20705.48
229.587	20706.1
229.659	20684.46
229.732	20681.91
229.804	20695.74
229.877	20717.67
229.949	20723.79
230.022	20736.37
230.094	20738.97
230.167	20736.42
230.239	20735.07
230.312	20728.08
230.384	20753.34
230.457	20749.19
230.529	20749.38
230.602	20756.03
230.674	20752.85
230.747	20764.08
230.819	20774.11
230.892	20745.58
230.964	20748.18
231.037	20754.3
231.109	20756.47
231.181	20761.05
231.254	20750.78
231.326	20731.45
231.399	20727.65
231.471	20710.3
231.544	20684.75
231.616	20694.05
231.688	20690.44
231.761	20679.12
231.833	20681.86
231.905	20649.28
231.978	20644.22
232.05	20630.15
232.122	20611.79
232.195	20593.76
232.267	20598.92
232.339	20580.9
232.412	20583.98
232.484	20568.46
232.556	20547.16
232.629	20558.44
232.701	20561.76
232.773	20549.14
232.846	20545.43
232.918	20524.46
232.99	20520.8
233.062	20511.98
233.135	20500.46
233.207	20473.62
233.279	20469.38
233.351	20455.59
233.424	20441.91
233.496	20407.16
233.568	20424.03
233.64	20400.27
233.713	20388.12
233.785	20368.08
233.857	20351.84
233.929	20324.03
234.001	20318.29
234.074	20321.43
234.146	20277.91
234.218	20255.35
234.29	20244.85
234.362	20215.26
234.434	20187.69
234.507	20155.45
234.579	20119.12
234.651	20100.37
234.723	20097.57
234.795	20080.13
234.867	20056.18
234.939	20052.56
235.012	20036.37
235.084	20016.9
235.156	20005.19
235.228	19982.3
235.3	19948.42
235.372	19931.56
235.444	19920.28
235.516	19868.47
235.588	19848.18
235.66	19828.52
235.732	19788.96
235.804	19817.73
235.876	19807.8
235.948	19799.47
236.02	19778.45
236.092	19753.59
236.164	19720.77
236.236	19675.71
236.308	19645.02
236.38	19619.23
236.452	19585.36
236.524	19578.99
236.596	19556.01
236.668	19530.8
236.74	19507.91
236.812	19489.79
236.884	19478.47
236.956	19456.11
237.028	19427.2
237.1	19396.55
237.172	19389.7
237.244	19384.79
237.316	19322
237.388	19287.4
237.46	19239.78
237.532	19231.88
237.604	19199.5
237.675	19195.06
237.747	19187.02
237.819	19156.27
237.891	19131.36
237.963	19095.55
238.035	19051.51
238.107	18986.64
238.178	18977.39
238.25	18956.67
238.322	18957.54
238.394	18903.32
238.466	18870.51
238.538	18851.28
238.609	18820.82
238.681	18765.89
238.753	18723.19
238.825	18694.85
238.897	18672.11
238.968	18668.78
239.04	18622.09
239.112	18625.03
239.184	18577.27
239.255	18539.97
239.327	18518.24
239.399	18493.61
239.471	18474.34
239.542	18453.71
239.614	18441.76
239.686	18385.09
239.758	18360.03
239.829	18310.39
239.901	18296.56
239.973	18266.49
240.044	18243.41
240.116	18222.59
240.188	18189.15
240.259	18159.36
240.331	18124.91
240.403	18103.17
240.474	18055.47
240.546	18014.7
240.618	17965.68
240.689	17936.05
240.761	17898.84
240.833	17879.9
240.904	17842.27
240.976	17815.04
241.048	17786.61
241.119	17766.12
241.191	17749.02
241.262	17727.38
241.334	17692.78
241.405	17657.26
241.477	17619.62
241.549	17579.96
241.62	17548.83
241.692	17531.53
241.763	17511.19
241.835	17478.71
241.906	17442.47
241.978	17402.76
242.049	17388.01
242.121	17368.35
242.192	17344.25
242.264	17302.8
242.335	17252.05
242.407	17220.82
242.478	17175.76
242.55	17138.8
242.621	17095.62
242.693	17052
242.764	17017.74
242.836	16978.22
242.907	16953.25
242.979	16922.45
243.05	16891.8
243.122	16864.86
243.193	16829.58
243.264	16777.29
243.336	16735.22
243.407	16712.23
243.479	16692.32
243.55	16657.57
243.622	16619.69
243.693	16582.49
243.764	16575.64
243.836	16537.85
243.907	16507.39
243.978	16467.2
244.05	16439.24
244.121	16391
244.192	16368.83
244.264	16319.33
244.335	16287.04
244.407	16231.08
244.478	16202.64
244.549	16175.55
244.62	16123.93
244.692	16086.77
244.763	16063.49
244.834	16025.32
244.906	15979.44
244.977	15952.2
245.048	15945.75
245.119	15906.61
245.191	15872.87
245.262	15807.27
245.333	15789.77
245.405	15758.44
245.476	15734.63
245.547	15704.75
245.618	15683.3
245.689	15649.41
245.761	15621.26
245.832	15595.33
245.903	15582.41
245.974	15555.23
246.045	15515.94
246.117	15503.27
246.188	15466.97
246.259	15426.48
246.33	15400.93
246.401	15368.93
246.473	15321.69
246.544	15275.42
246.615	15264.28
246.686	15221.87
246.757	15212.95
246.828	15166.43
246.899	15148.12
246.97	15104.44
247.042	15066.07
247.113	15044.29
247.184	15037.49
247.255	15000.18
247.326	14962.82
247.397	14931.78
247.468	14900.4
247.539	14873.94
247.61	14819.61
247.681	14795.99
247.752	14776.37
247.823	14736.65
247.894	14707.92
247.965	14670.61
248.037	14639.66
248.108	14587.94
248.179	14568.32
248.25	14532.7
248.321	14517.08
248.392	14474.37
248.463	14473.6
248.534	14453.21
248.605	14432.62
248.675	14394.64
248.746	14369.81
248.817	14348.89
248.888	14316.84
248.959	14268.24
249.03	14243.32
249.101	14222.83
249.172	14194.39
249.243	14144.74
249.314	14138.18
249.385	14118.76
249.456	14102.22
249.527	14068.33
249.598	14047.36
249.669	14016.8
249.739	14000.12
249.81	13974.86
249.881	13936.59
249.952	13909.88
250.023	13876.57
250.094	13829.81
250.165	13788.83
250.235	13766.8
250.306	13745.98
250.377	13709.49
250.448	13698.25
250.519	13660.85
250.59	13653.28
250.66	13622.57
250.731	13615.48
250.802	13581.26
250.873	13551.08
250.944	13527.6
251.014	13487.69
251.085	13487.16
251.156	13471.73
251.227	13456.98
251.297	13452.64
251.368	13447.87
251.439	13422.61
251.51	13405.4
251.58	13370.93
251.651	13345.53
251.722	13333.76
251.792	13285.22
251.863	13257.74
251.934	13253.26
252.005	13253.4
252.075	13220.38
252.146	13204.23
252.217	13193.05
252.287	13183.99
252.358	13155.69
252.429	13142.43
252.499	13119.1
252.57	13098.37
252.641	13076.34
252.711	13056.63
252.782	13011.02
252.852	12996.66
252.923	12976.56
252.994	12957.85
253.064	12955.92
253.135	12924.06
253.205	12891.09
253.276	12899.86
253.347	12895.86
253.417	12854.31
253.488	12824.03
253.558	12803.59
253.629	12777.61
253.699	12762.86
253.77	12750.57
253.841	12726.95
253.911	12711.52
253.982	12699.76
254.052	12684.72
254.123	12666.55
254.193	12640.8
254.264	12658.74
254.334	12634.49
254.405	12604.12
254.475	12572.74
254.546	12548.44
254.616	12545.74
254.687	12525.55
254.757	12497.78
254.827	12469.39
254.898	12454.73
254.968	12432.75
255.039	12407.45
255.109	12403.74
255.18	12363.05
255.25	12311.76
255.321	12295.9
255.391	12267.61
255.461	12269.2
255.532	12216.56
255.602	12191.35
255.673	12149.22
255.743	12109.98
255.813	12065.3
255.884	12058.94
255.954	12049.78
256.024	12047.08
256.095	12033.54
256.165	12006.93
256.235	11997.48
256.306	11976.61
256.376	11972.71
256.446	11968.99
256.517	11956.27
256.587	11943.64
256.657	11936.02
256.728	11927.01
256.798	11915.83
256.868	11883.49
256.938	11852.69
257.009	11847.96
257.079	11837.02
257.149	11848.01
257.219	11813.79
257.29	11799.86
257.36	11756.77
257.43	11748.05
257.5	11710.69
257.571	11677.73
257.641	11662.35
257.711	11623.5
257.781	11617.43
257.852	11598.87
257.922	11549.86
257.992	11530.14
258.062	11504.07
258.132	11488.79
258.202	11463.68
258.273	11446.52
258.343	11452.02
258.413	11420.45
258.483	11400.35
258.553	11374.23
258.623	11346.51
258.693	11335.09
258.764	11330.56
258.834	11333.45
258.904	11309.5
258.974	11278.8
259.044	11261.21
259.114	11251.24
259.184	11238.95
259.254	11221.45
259.324	11179.91
259.394	11176.63
259.464	11176.49
259.535	11159.33
259.605	11139.28
259.675	11113.31
259.745	11097.02
259.815	11062.85
259.885	11044.01
259.955	11056.98
260.025	11035.82
260.095	11022.52
260.165	11010.81
260.235	11013.41
260.305	10983.82
260.375	10953.27
260.445	10964.35
260.515	10965.65
260.585	10958.81
260.655	10952.6
260.725	10936.93
260.795	10933.37
260.865	10930.04
260.934	10895.15
261.004	10884.89
261.074	10878.58
261.144	10879.44
261.214	10879.01
261.284	10862.1
261.354	10861.71
261.424	10837.13
261.494	10831.83
261.564	10811.69
261.634	10802.49
261.703	10760.95
261.773	10758.64
261.843	10759.46
261.913	10737.19
