Data from 20250703_urea_0.1M_MAYP1162681_06-51-05-074.txt Node
Date: Fri Jul 04 06:51:05 BST 2025
User: adleo
Spectrometer: MAYP116268
Trigger mode: 0
Integration Time (sec): 1.000000E0
Scans to average: 1
Electric dark correction enabled: true
Nonlinearity correction enabled: true
Boxcar width: 10
XAxis mode: Wavelengths
Number of Pixels in Spectrum: 2068
>>>>>Begin Spectral Data<<<<<
179.565	1258.27
179.642	1316.68
179.718	1363.81
179.795	1405.62
179.871	1442.13
179.948	1458.98
180.024	1480.95
180.101	1503.41
180.177	1516.11
180.254	1539.11
180.33	1562.26
180.407	1617.24
180.483	1715.49
180.56	1810.37
180.636	1900.63
180.712	1885.03
180.789	1895.16
180.865	1908.65
180.942	1913.74
181.018	1920.44
181.095	1936.62
181.171	1944.13
181.248	1945.74
181.324	1960.92
181.4	1968.24
181.477	1980.23
181.553	1994.01
181.63	2014.22
181.706	2031.11
181.782	2042.33
181.859	2042.28
181.935	2047.32
182.011	2045.13
182.088	2062.35
182.164	2081.29
182.24	2092.8
182.317	2104.87
182.393	2106.16
182.469	2117.24
182.546	2131.74
182.622	2139.5
182.698	2131.79
182.775	2142.35
182.851	2158.1
182.927	2148.49
183.003	2144.73
183.08	2136.36
183.156	2146.97
183.232	2142.49
183.308	2132.36
183.385	2139.16
183.461	2159.62
183.537	2161.33
183.613	2175.99
183.69	2168.42
183.766	2158.85
183.842	2164.8
183.918	2167.37
183.995	2179.83
184.071	2186.88
184.147	2184.12
184.223	2170.71
184.299	2185.46
184.375	2176.51
184.452	2181.66
184.528	2236.67
184.604	2245.8
184.68	2256.22
184.756	2262.79
184.832	2270.64
184.908	2273.64
184.985	2272.97
185.061	2253.7
185.137	2262.03
185.213	2252.23
185.289	2254.46
185.365	2248.8
185.441	2250.56
185.517	2267.22
185.593	2263.84
185.669	2260.42
185.745	2271.41
185.822	2287.1
185.898	2278.06
185.974	2283.87
186.05	2277.73
186.126	2240.6
186.202	2234.46
186.278	2229.47
186.354	2220.47
186.43	2225.85
186.506	2223.95
186.582	2223.71
186.658	2231.56
186.734	2211.82
186.81	2212.3
186.886	2212.11
186.962	2220.05
187.038	2215.63
187.114	2206.25
187.19	2213.34
187.266	2204.39
187.341	2203.2
187.417	2198.21
187.493	2195.92
187.569	2201.73
187.645	2194.35
187.721	2181.79
187.797	2187.59
187.873	2194.73
187.949	2188.93
188.025	2183.41
188.101	2187.69
188.176	2192.73
188.252	2188.35
188.328	2197.25
188.404	2197.67
188.48	2194.68
188.556	2189.35
188.632	2188.73
188.707	2194.2
188.783	2190.68
188.859	2183.6
188.935	2173.79
189.011	2178.79
189.086	2174.41
189.162	2166.13
189.238	2162.71
189.314	2161.52
189.39	2157.62
189.465	2150.67
189.541	2167.52
189.617	2151.96
189.693	2148.06
189.768	2151.34
189.844	2176.66
189.92	2167.15
189.996	2176.57
190.071	2190.09
190.147	2188.66
190.223	2197.04
190.298	2184.8
190.374	2171.96
190.45	2185.56
190.526	2194.65
190.601	2188.47
190.677	2189.32
190.753	2217.89
190.828	2219.98
190.904	2235.4
190.98	2249.63
191.055	2258.19
191.131	2252.1
191.207	2271.99
191.282	2282.36
191.358	2273.18
191.433	2257.09
191.509	2271.88
191.585	2267.17
191.66	2265.88
191.736	2276.73
191.811	2267.78
191.887	2286.11
191.963	2309.52
192.038	2315.9
192.114	2316
192.189	2321.66
192.265	2319.95
192.34	2295.33
192.416	2295.33
192.491	2290.05
192.567	2293.24
192.642	2299.04
192.718	2296.85
192.793	2285.43
192.869	2279.2
192.944	2283.34
193.02	2291.57
193.095	2295.43
193.171	2302.37
193.246	2301.95
193.322	2296.47
193.397	2298.04
193.473	2283.43
193.548	2265.72
193.624	2271.67
193.699	2271.34
193.775	2287.72
193.85	2290.9
193.925	2300.9
194.001	2301.61
194.076	2295.09
194.152	2283.95
194.227	2275.19
194.302	2265.68
194.378	2268.63
194.453	2268.87
194.529	2281.62
194.604	2266.73
194.679	2258.31
194.755	2239.9
194.83	2252.75
194.905	2252.94
194.981	2259.84
195.056	2252.37
195.131	2260.18
195.207	2257.65
195.282	2244.52
195.357	2225.39
195.433	2240.04
195.508	2228.72
195.583	2236.04
195.659	2251.47
195.734	2258.75
195.809	2258.46
195.884	2267.6
195.96	2269.64
196.035	2282.06
196.11	2276.97
196.185	2288.2
196.261	2293
196.336	2324.89
196.411	2310.89
196.486	2314.94
196.561	2310.27
196.637	2319.5
196.712	2334.5
196.787	2335.41
196.862	2353.49
196.937	2363.05
197.013	2363.43
197.088	2375
197.163	2398.81
197.238	2413.1
197.313	2413.72
197.388	2426.57
197.464	2458.86
197.539	2469.05
197.614	2463.29
197.689	2475.91
197.764	2494.72
197.839	2516.53
197.914	2510.29
197.989	2531.48
198.065	2547.95
198.14	2598.99
198.215	2626.23
198.29	2639.67
198.365	2652.96
198.44	2665.63
198.515	2696.17
198.59	2713.27
198.665	2737.9
198.74	2745.28
198.815	2751.57
198.89	2774.82
198.965	2806.37
199.04	2802.18
199.115	2818.04
199.19	2861.07
199.265	2866.36
199.34	2875.41
199.415	2910.51
199.49	2932.71
199.565	2943.48
199.64	2964.93
199.715	2962.84
199.79	2969.18
199.865	2975.28
199.94	2976.42
200.015	3009.08
200.09	3012.23
200.165	3021.48
200.24	3028.06
200.315	3071.54
200.39	3085.75
200.464	3093.23
200.539	3095.52
200.614	3111.21
200.689	3135.1
200.764	3140.73
200.839	3157.89
200.914	3165.19
200.989	3153.78
201.063	3169.95
201.138	3150.42
201.213	3152.42
201.288	3131.82
201.363	3139.64
201.438	3139.97
201.512	3155.85
201.587	3136.05
201.662	3143.44
201.737	3156.51
201.812	3167.77
201.886	3131.01
201.961	3138.84
202.036	3126.68
202.111	3121.87
202.186	3093.37
202.26	3078.29
202.335	3061.07
202.41	3057.45
202.485	3040.91
202.559	3024.46
202.634	2998.66
202.709	3013.38
202.784	2995.89
202.858	2998.41
202.933	2981.25
203.008	2977.1
203.082	2961.08
203.157	2961.32
203.232	2922.34
203.306	2907.22
203.381	2879.9
203.456	2858.45
203.53	2840.94
203.605	2826.98
203.68	2813.44
203.754	2815.06
203.829	2808.06
203.904	2796.57
203.978	2794.23
204.053	2807.58
204.127	2802.62
204.202	2814.45
204.277	2813.16
204.351	2820.36
204.426	2828.46
204.5	2837.23
204.575	2821.36
204.65	2846.16
204.724	2861.28
204.799	2888.62
204.873	2905.08
204.948	2924.48
205.022	2945.64
205.097	2963.72
205.171	3008.06
205.246	3045.37
205.32	3075.26
205.395	3107.69
205.469	3129.81
205.544	3173.15
205.618	3193.47
205.693	3248.92
205.767	3274.68
205.842	3338.46
205.916	3376.35
205.991	3416.17
206.065	3472.65
206.14	3537.02
206.214	3590.43
206.289	3638.29
206.363	3709.7
206.438	3769.19
206.512	3840.28
206.586	3915.77
206.661	3988.02
206.735	4026.53
206.81	4094.06
206.884	4175.51
206.958	4233.4
207.033	4322.12
207.107	4398.89
207.181	4503.91
207.256	4571.82
207.33	4666.56
207.405	4757.62
207.479	4858.05
207.553	4946.33
207.628	5004.11
207.702	5101.76
207.776	5177.21
207.851	5264.65
207.925	5366.23
207.999	5454.85
208.073	5541.62
208.148	5639.44
208.222	5716.36
208.296	5842.39
208.371	5952.38
208.445	6060.18
208.519	6185.69
208.593	6296.64
208.668	6384.82
208.742	6491.54
208.816	6585.62
208.89	6696.89
208.965	6791.4
209.039	6896.9
209.113	7008.73
209.187	7133.92
209.261	7223.71
209.336	7341.83
209.41	7461.84
209.484	7556.46
209.558	7678.3
209.632	7784.59
209.707	7894.77
209.781	8019.8
209.855	8139.68
209.929	8255.65
210.003	8356.05
210.077	8452.04
210.151	8601.84
210.226	8738.18
210.3	8865.1
210.374	8991.9
210.448	9095.11
210.522	9199.58
210.596	9314.46
210.67	9419.28
210.744	9566.53
210.818	9699.42
210.892	9821.99
210.966	9914.84
211.041	10039.45
211.115	10121.09
211.189	10245.41
211.263	10352.88
211.337	10449.37
211.411	10549.68
211.485	10638.25
211.559	10751.71
211.633	10851.2
211.707	10907.39
211.781	11007.15
211.855	11057.65
211.929	11140.34
212.003	11221.05
212.077	11323.08
212.151	11417.59
212.225	11525.45
212.299	11601.46
212.373	11677.99
212.447	11761.86
212.52	11875.61
212.594	11956.78
212.668	12063.25
212.742	12137.48
212.816	12216.68
212.89	12295.1
212.964	12379.02
213.038	12469.93
213.112	12561.57
213.186	12657.83
213.26	12721.99
213.333	12762.63
213.407	12852.43
213.481	12934.48
213.555	13021.68
213.629	13090.76
213.703	13152.75
213.777	13223.81
213.85	13287.39
213.924	13401.74
213.998	13481.18
214.072	13550.98
214.146	13614.66
214.219	13686.92
214.293	13751.38
214.367	13825.32
214.441	13909.25
214.515	13969.03
214.588	14001.04
214.662	14030.88
214.736	14077.59
214.81	14150.43
214.883	14227.85
214.957	14276.39
215.031	14331.58
215.105	14368.22
215.178	14415.32
215.252	14469.79
215.326	14508.79
215.4	14543.3
215.473	14554.2
215.547	14581.91
215.621	14625.2
215.694	14687.53
215.768	14720.55
215.842	14767.89
215.915	14803.85
215.989	14834.45
216.063	14876.34
216.136	14938.19
216.21	14997.96
216.284	15060.43
216.357	15114.23
216.431	15163.44
216.504	15224.56
216.578	15302.79
216.652	15365.31
216.725	15424.79
216.799	15487.74
216.873	15539.17
216.946	15596.68
217.02	15644.49
217.093	15703.39
217.167	15735.25
217.24	15760.37
217.314	15805.77
217.387	15845.39
217.461	15892.15
217.535	15952.97
217.608	15993.37
217.682	16044.36
217.755	16110.15
217.829	16150.68
217.902	16201.24
217.976	16243.95
218.049	16276.77
218.123	16305.01
218.196	16368.78
218.27	16402.23
218.343	16427.87
218.417	16483.97
218.49	16529.66
218.563	16589.61
218.637	16637.76
218.71	16711.11
218.784	16777.29
218.857	16837.19
218.931	16894.74
219.004	16942.36
219.077	17001.39
219.151	17057.93
219.224	17102.65
219.298	17138.84
219.371	17193.4
219.444	17228.82
219.518	17284.49
219.591	17341.98
219.665	17423.14
219.738	17466.9
219.811	17510.41
219.885	17571.43
219.958	17621.59
220.031	17669.98
220.105	17725.21
220.178	17777.59
220.251	17809.59
220.325	17858.36
220.398	17911.03
220.471	17966.84
220.544	18026.26
220.618	18055.7
220.691	18100.67
220.764	18140.95
220.838	18192.04
220.911	18229.62
220.984	18295.45
221.057	18340.75
221.131	18383.64
221.204	18385.67
221.277	18439.98
221.35	18509.37
221.424	18545.13
221.497	18582.76
221.57	18628.64
221.643	18671.92
221.716	18716.35
221.79	18754.32
221.863	18788.15
221.936	18821.01
222.009	18849.21
222.082	18896.29
222.155	18932.96
222.229	18986.93
222.302	19037.05
222.375	19063.46
222.448	19110.39
222.521	19140.66
222.594	19174.44
222.667	19209.04
222.74	19260.31
222.814	19291.78
222.887	19316.6
222.96	19364.98
223.033	19411.58
223.106	19440.54
223.179	19470.04
223.252	19494.47
223.325	19533.07
223.398	19569.02
223.471	19604.92
223.544	19631.04
223.617	19651.42
223.69	19680.48
223.763	19687.71
223.837	19723.47
223.91	19762.45
223.983	19771.03
224.056	19786.21
224.129	19806.93
224.202	19840.04
224.275	19851.61
224.348	19862.64
224.42	19877.2
224.493	19878.93
224.566	19890.4
224.639	19916.81
224.712	19934.69
224.785	19950.98
224.858	19964.13
224.931	19971.79
225.004	19976.28
225.077	20000.47
225.15	19988.47
225.223	20004.71
225.296	20049.38
225.369	20033.05
225.442	20031.07
225.514	20055.65
225.587	20076.22
225.66	20100.42
225.733	20111.16
225.806	20133.24
225.879	20149.24
225.952	20153.43
226.025	20183.26
226.097	20215.16
226.17	20233.96
226.243	20227.4
226.316	20248.9
226.389	20267.07
226.461	20287.11
226.534	20314.34
226.607	20322.25
226.68	20363.59
226.753	20374.15
226.825	20361.04
226.898	20398.29
226.971	20416.94
227.044	20418.2
227.117	20423.93
227.189	20441.28
227.262	20458.87
227.335	20474.77
227.407	20470.15
227.48	20479.21
227.553	20484.7
227.626	20480.85
227.698	20485.04
227.771	20494.82
227.844	20482.05
227.916	20480.03
227.989	20474
228.062	20465.76
228.134	20500.99
228.207	20504.41
228.28	20505.14
228.352	20521.18
228.425	20519.02
228.498	20528.65
228.57	20530.92
228.643	20550.82
228.716	20543.16
228.788	20541.91
228.861	20535.26
228.934	20559.88
229.006	20564.61
229.079	20570.49
229.151	20554.2
229.224	20532.08
229.296	20540.75
229.369	20574.39
229.442	20586.15
229.514	20581.67
229.587	20598.97
229.659	20571.93
229.732	20579.64
229.804	20590.1
229.877	20603.11
229.949	20628.51
230.022	20649.38
230.094	20654.44
230.167	20655.5
230.239	20644.66
230.312	20641.77
230.384	20661.67
230.457	20657.48
230.529	20671.45
230.602	20676.22
230.674	20696.18
230.747	20718.63
230.819	20726.68
230.892	20684.37
230.964	20685.62
231.037	20689.14
231.109	20679.45
231.181	20690.44
231.254	20678.73
231.326	20678.54
231.399	20677.43
231.471	20646.05
231.544	20616.32
231.616	20617.96
231.688	20619.79
231.761	20605.91
231.833	20597.19
231.905	20574.39
231.978	20568.9
232.05	20551.26
232.122	20537.18
232.195	20514.49
232.267	20514.44
232.339	20503.59
232.412	20523.26
232.484	20506.77
232.556	20480.08
232.629	20496.65
232.701	20490.39
232.773	20475.11
232.846	20450.49
232.918	20434.82
232.99	20434.49
233.062	20441.67
233.135	20435.69
233.207	20396.94
233.279	20393.76
233.351	20388.08
233.424	20364.56
233.496	20346.73
233.568	20356.08
233.64	20323.16
233.713	20309.43
233.785	20292.94
233.857	20285.23
233.929	20249.43
234.001	20255.36
234.074	20270.58
234.146	20224.56
234.218	20203.69
234.29	20183.98
234.362	20165.38
234.434	20127.55
234.507	20091.6
234.579	20050.4
234.651	20026.59
234.723	20021.19
234.795	20011.36
234.867	19984.52
234.939	19976.28
235.012	19954.25
235.084	19935.46
235.156	19929.39
235.228	19908.42
235.3	19883.99
235.372	19861.34
235.444	19856.28
235.516	19809.92
235.588	19791.9
235.66	19776.62
235.732	19751.08
235.804	19793.34
235.876	19786.12
235.948	19780.33
236.02	19764.53
236.092	19741.01
236.164	19713.64
236.236	19689.11
236.308	19656
236.38	19639.57
236.452	19606.17
236.524	19583.52
236.596	19566.66
236.668	19557.74
236.74	19519.96
236.812	19499.87
236.884	19479.19
236.956	19451.72
237.028	19421.22
237.1	19380.6
237.172	19368.69
237.244	19354.24
237.316	19285.37
237.388	19250.1
237.46	19213.86
237.532	19205.71
237.604	19168.7
237.675	19151.02
237.747	19130.68
237.819	19097.38
237.891	19069.05
237.963	19033.97
238.035	19003.08
238.107	18946.16
238.178	18931.42
238.25	18918.89
238.322	18906.26
238.394	18859.23
238.466	18825.4
238.538	18806.75
238.609	18777.64
238.681	18727.04
238.753	18692.3
238.825	18664.49
238.897	18642.33
238.968	18627.44
239.04	18582.09
239.112	18590.04
239.184	18559.34
239.255	18519.39
239.327	18491.2
239.399	18465.66
239.471	18447.16
239.542	18423.98
239.614	18411.54
239.686	18343.02
239.758	18318.39
239.829	18277.53
239.901	18264.85
239.973	18231.84
240.044	18205.68
240.116	18181.92
240.188	18150.3
240.259	18116.09
240.331	18077.44
240.403	18047.95
240.474	18009.39
240.546	17963.52
240.618	17905.16
240.689	17866.65
240.761	17843.71
240.833	17844.29
240.904	17806.32
240.976	17783.81
241.048	17756.49
241.119	17730.27
241.191	17704.82
241.262	17688.29
241.334	17650.95
241.405	17612.39
241.477	17586.56
241.549	17547.33
241.62	17516.25
241.692	17491.62
241.763	17470.13
241.835	17435.96
241.906	17398.66
241.978	17347.19
242.049	17340.49
242.121	17328.25
242.192	17309.31
242.264	17259.14
242.335	17200.29
242.407	17172.53
242.478	17129.16
242.55	17097.21
242.621	17050.36
242.693	17022.02
242.764	16983.04
242.836	16949.78
242.907	16923.76
242.979	16891.03
243.05	16861.49
243.122	16832.04
243.193	16799.65
243.264	16747.94
243.336	16716.61
243.407	16698.25
243.479	16681.19
243.55	16646.39
243.622	16612.56
243.693	16573.23
243.764	16557.42
243.836	16511.88
243.907	16468.98
243.978	16431.24
244.05	16406.18
244.121	16351.76
244.192	16329.35
244.264	16284.82
244.335	16251.51
244.407	16203.12
244.478	16178.93
244.549	16147.94
244.62	16101.47
244.692	16070.63
244.763	16047.35
244.834	16011.29
244.906	15967.39
244.977	15945.65
245.048	15927.57
245.119	15882.99
245.191	15843.85
245.262	15792.09
245.333	15781.48
245.405	15761.28
245.476	15739.74
245.547	15703.93
245.618	15690.86
245.689	15661.17
245.761	15631.14
245.832	15600.34
245.903	15577.26
245.974	15545.93
246.045	15516.67
246.117	15505.44
246.188	15455.93
246.259	15417.57
246.33	15386.52
246.401	15352.06
246.473	15302.94
246.544	15262.21
246.615	15243.03
246.686	15210.88
246.757	15195.88
246.828	15153.08
246.899	15136.93
246.97	15091.81
247.042	15051.52
247.113	15029.25
247.184	15012.47
247.255	14970.44
247.326	14943.88
247.397	14904.64
247.468	14875.96
247.539	14838.31
247.61	14785.87
247.681	14769.67
247.752	14750.34
247.823	14707.05
247.894	14689.41
247.965	14656.73
248.037	14623.95
248.108	14577.48
248.179	14549.42
248.25	14518.96
248.321	14505.46
248.392	14464.63
248.463	14451.91
248.534	14424.48
248.605	14405.1
248.675	14368.8
248.746	14354.87
248.817	14330.38
248.888	14311.15
248.959	14266.03
249.03	14247.08
249.101	14231.95
249.172	14202.01
249.243	14148.6
249.314	14142.28
249.385	14110.76
249.456	14090.56
249.527	14060.77
249.598	14045.63
249.669	14019.12
249.739	13988.89
249.81	13959.82
249.881	13920.44
249.952	13903.85
250.023	13877.82
250.094	13832.03
250.165	13789.7
250.235	13756.01
250.306	13728.48
250.377	13694.35
250.448	13673.72
250.519	13628.55
250.59	13615.05
250.66	13582.32
250.731	13574.36
250.802	13545.92
250.873	13525.58
250.944	13501.33
251.014	13471.44
251.085	13464.84
251.156	13443.82
251.227	13439.24
251.297	13429.79
251.368	13411.91
251.439	13396.29
251.51	13379.8
251.58	13341.33
251.651	13321.18
251.722	13308.12
251.792	13266.28
251.863	13240.05
251.934	13235.09
252.005	13240.1
252.075	13209.87
252.146	13197.82
252.217	13188.86
252.287	13172.32
252.358	13150.24
252.429	13145.86
252.499	13112.98
252.57	13092.97
252.641	13082.85
252.711	13055.42
252.782	13011.94
252.852	13017.43
252.923	12984.61
252.994	12964.41
253.064	12963.59
253.135	12930.47
253.205	12906.56
253.276	12905.07
253.347	12896.05
253.417	12857.05
253.488	12832.95
253.558	12812.46
253.629	12791.49
253.699	12774.67
253.77	12765.03
253.841	12736.54
253.911	12715.47
253.982	12701.25
254.052	12681.49
254.123	12663.89
254.193	12640.47
254.264	12662.98
254.334	12624.17
254.405	12594.77
254.475	12568.5
254.546	12542.32
254.616	12539.19
254.687	12518.56
254.757	12496.33
254.827	12474.4
254.898	12459.12
254.968	12428.42
255.039	12403.78
255.109	12394.34
255.18	12361.22
255.25	12313.55
255.321	12295.71
255.391	12264.33
255.461	12265.05
255.532	12218.1
255.602	12187.11
255.673	12152.55
255.743	12119.33
255.813	12078.46
255.884	12069.3
255.954	12045.68
256.024	12046.84
256.095	12019.99
256.165	11988.03
256.235	11980.32
256.306	11957.38
256.376	11950.24
256.446	11939.69
256.517	11917.71
256.587	11900.31
256.657	11883.63
256.728	11865.61
256.798	11850.71
256.868	11822.61
256.938	11789.93
257.009	11785.35
257.079	11777.74
257.149	11787.86
257.219	11741.63
257.29	11727.32
257.36	11693
257.43	11691.03
257.5	11646.93
257.571	11630.1
257.641	11622.01
257.711	11585.23
257.781	11572.41
257.852	11556.12
257.922	11521.03
257.992	11504.5
258.062	11489.95
258.132	11481.51
258.202	11454.43
258.273	11438.91
258.343	11442.33
258.413	11421.65
258.483	11397.94
258.553	11364.01
258.623	11330.47
258.693	11319.53
258.764	11320.68
258.834	11314.51
258.904	11294.13
258.974	11263.38
259.044	11243.57
259.114	11229.79
259.184	11219.28
259.254	11197.79
259.324	11162.99
259.394	11155.14
259.464	11157.55
259.535	11137.69
259.605	11105.93
259.675	11094.32
259.745	11081.7
259.815	11046.42
259.885	11016.64
259.955	11030.71
260.025	11005.41
260.095	10989.8
260.165	10975.44
260.235	10970.19
260.305	10943.63
260.375	10919.68
260.445	10933.22
260.515	10930.86
260.585	10924.69
260.655	10910.48
260.725	10905.8
260.795	10901.85
260.865	10902.77
260.934	10873.08
261.004	10861.71
261.074	10853.61
261.144	10851.98
261.214	10842.82
261.284	10829.76
261.354	10829.67
261.424	10804.32
261.494	10808.84
261.564	10791.21
261.634	10782.92
261.703	10749.05
261.773	10739.89
261.843	10729.72
