Data from 20250703_urea_0.1M_MAYP1162681_01-51-05-511.txt Node
Date: Fri Jul 04 01:51:05 BST 2025
User: adleo
Spectrometer: MAYP116268
Trigger mode: 0
Integration Time (sec): 1.000000E0
Scans to average: 1
Electric dark correction enabled: true
Nonlinearity correction enabled: true
Boxcar width: 10
XAxis mode: Wavelengths
Number of Pixels in Spectrum: 2068
>>>>>Begin Spectral Data<<<<<
179.565	1335.9
179.642	1393.56
179.718	1444.88
179.795	1489.23
179.871	1527.53
179.948	1548.44
180.024	1570.59
180.101	1599.1
180.177	1615.77
180.254	1641.62
180.33	1664.72
180.407	1729.64
180.483	1834.45
180.56	1933.95
180.636	2027.01
180.712	2013.64
180.789	2024.01
180.865	2035.09
180.942	2041.32
181.018	2053.3
181.095	2067.86
181.171	2074.52
181.248	2080.66
181.324	2095.36
181.4	2101.83
181.477	2112.34
181.553	2126.27
181.63	2151.06
181.706	2166.1
181.782	2174.9
181.859	2171.04
181.935	2178.7
182.011	2172.47
182.088	2190.74
182.164	2211.21
182.24	2224.29
182.317	2234.99
182.393	2233.47
182.469	2250.41
182.546	2266.35
182.622	2271.34
182.698	2266.54
182.775	2276.01
182.851	2289.05
182.927	2281.29
183.003	2277.72
183.08	2271.06
183.156	2278.2
183.232	2271.34
183.308	2258.45
183.385	2266.63
183.461	2288.09
183.537	2287.9
183.613	2303.51
183.69	2292.14
183.766	2282.9
183.842	2291.28
183.918	2294.37
183.995	2308.41
184.071	2311.65
184.147	2306.41
184.223	2296.71
184.299	2308.13
184.375	2300.14
184.452	2306.37
184.528	2357.36
184.604	2369.01
184.68	2380.72
184.756	2388.72
184.832	2392.34
184.908	2396.05
184.985	2396.28
185.061	2379.39
185.137	2391.58
185.213	2376.96
185.289	2380.3
185.365	2371.44
185.441	2371.35
185.517	2388.92
185.593	2385.11
185.669	2380.83
185.745	2392.3
185.822	2408.76
185.898	2402.53
185.974	2411.14
186.05	2402.19
186.126	2367.82
186.202	2357.54
186.278	2355.73
186.354	2346.31
186.43	2353.97
186.506	2356.26
186.582	2355.02
186.658	2359.78
186.734	2334.98
186.81	2338.88
186.886	2344.74
186.962	2359.25
187.038	2355.35
187.114	2345.73
187.19	2352.4
187.266	2342.21
187.341	2340.26
187.417	2333.88
187.493	2329.98
187.569	2333.64
187.645	2326.65
187.721	2312.7
187.797	2322.12
187.873	2326.02
187.949	2320.03
188.025	2314.93
188.101	2316.84
188.176	2324.22
188.252	2321.03
188.328	2331.92
188.404	2332.3
188.48	2322.83
188.556	2312.17
188.632	2312.36
188.707	2311.31
188.783	2310.12
188.859	2305.94
188.935	2296.75
189.011	2303.56
189.086	2299.89
189.162	2286.99
189.238	2287.76
189.314	2288.37
189.39	2280.62
189.465	2273.19
189.541	2292.85
189.617	2277.05
189.693	2272.2
189.768	2275.29
189.844	2304.05
189.92	2295.44
189.996	2301.39
190.071	2312.29
190.147	2314.48
190.223	2321.9
190.298	2314.86
190.374	2298.68
190.45	2309.67
190.526	2317.47
190.601	2309.43
190.677	2310.81
190.753	2344.29
190.828	2347.24
190.904	2361.23
190.98	2376.61
191.055	2387.89
191.131	2378.41
191.207	2401.83
191.282	2411.83
191.358	2400.26
191.433	2380.59
191.509	2392.58
191.585	2393.25
191.66	2398.96
191.736	2407.43
191.811	2399.1
191.887	2417.48
191.963	2441.9
192.038	2451.9
192.114	2452.23
192.189	2457.66
192.265	2455.42
192.34	2429.94
192.416	2427.32
192.491	2420.61
192.567	2428.09
192.642	2428.9
192.718	2426.37
192.793	2411.42
192.869	2404.48
192.944	2407.76
193.02	2416.19
193.095	2421.66
193.171	2428.09
193.246	2427.61
193.322	2423.18
193.397	2425.14
193.473	2411.04
193.548	2392.33
193.624	2393.47
193.699	2391.42
193.775	2409.9
193.85	2411.14
193.925	2421.76
194.001	2423.99
194.076	2420.76
194.152	2408.76
194.227	2401.66
194.302	2394.29
194.378	2399.9
194.453	2400.19
194.529	2410.66
194.604	2395.81
194.679	2387.48
194.755	2368.2
194.83	2377.11
194.905	2375.78
194.981	2387.3
195.056	2379.59
195.131	2387.4
195.207	2386.11
195.282	2378.4
195.357	2357.26
195.433	2371.58
195.508	2358.35
195.583	2362.73
195.659	2377.3
195.734	2384.39
195.809	2383.11
195.884	2390.72
195.96	2393.01
196.035	2404.62
196.11	2401.77
196.185	2415.14
196.261	2421.33
196.336	2455.66
196.411	2440.66
196.486	2445.46
196.561	2439.23
196.637	2445.37
196.712	2464.04
196.787	2466.99
196.862	2483.94
196.937	2498.22
197.013	2506.84
197.088	2518.74
197.163	2545.09
197.238	2564.3
197.313	2564.3
197.388	2580.87
197.464	2617.03
197.539	2626.12
197.614	2621.46
197.689	2635.65
197.764	2655.66
197.839	2675.81
197.914	2669.71
197.989	2695.34
198.065	2709.63
198.14	2762.55
198.215	2793.28
198.29	2802.58
198.365	2816.87
198.44	2828.21
198.515	2853.66
198.59	2867.29
198.665	2896.41
198.74	2901.89
198.815	2901.18
198.89	2924.2
198.965	2956.72
199.04	2951.23
199.115	2971.11
199.19	3018.3
199.265	3021.59
199.34	3028.79
199.415	3067.62
199.49	3086.11
199.565	3095.46
199.64	3119.39
199.715	3111.33
199.79	3118.34
199.865	3127.87
199.94	3127.59
200.015	3158.74
200.09	3165.27
200.165	3173
200.24	3180.87
200.315	3225.03
200.39	3239.53
200.464	3248.26
200.539	3251.22
200.614	3270.25
200.689	3296.16
200.764	3301.12
200.839	3324.35
200.914	3332.36
200.989	3320.23
201.063	3335.93
201.138	3319.01
201.213	3323.49
201.288	3305.41
201.363	3309.37
201.438	3311.85
201.512	3331.45
201.587	3315.28
201.662	3320.67
201.737	3334.51
201.812	3343.38
201.886	3309.81
201.961	3324.28
202.036	3312.59
202.111	3308.3
202.186	3274.4
202.26	3252.73
202.335	3232.65
202.41	3222.34
202.485	3203.93
202.559	3180.9
202.634	3155.38
202.709	3172.06
202.784	3152.32
202.858	3153.94
202.933	3140.3
203.008	3136.01
203.082	3119.22
203.157	3122.41
203.232	3079.04
203.306	3061.86
203.381	3031.14
203.456	3014.69
203.53	2994.31
203.605	2980.72
203.68	2964.84
203.754	2968.17
203.829	2963.59
203.904	2949.77
203.978	2952.87
204.053	2972.52
204.127	2975.43
204.202	2990.11
204.277	2983.29
204.351	2993.93
204.426	3004.66
204.5	3016.53
204.575	2999.27
204.65	3030.24
204.724	3047.28
204.799	3086.12
204.873	3110.08
204.948	3135.78
205.022	3148.56
205.097	3173.24
205.171	3220.33
205.246	3262.52
205.32	3301.97
205.395	3341.78
205.469	3377.69
205.544	3424.73
205.618	3454.19
205.693	3514.21
205.767	3554.08
205.842	3630.79
205.916	3675.68
205.991	3723.5
206.065	3789.87
206.14	3868.7
206.214	3927.89
206.289	3983.74
206.363	4064
206.438	4135.31
206.512	4216.88
206.586	4316.05
206.661	4400.86
206.735	4457.09
206.81	4538.52
206.884	4635.46
206.958	4706
207.033	4813.68
207.107	4909.73
207.181	5032.27
207.256	5120.46
207.33	5228.19
207.405	5335.93
207.479	5455.16
207.553	5560.35
207.628	5634.82
207.702	5750.52
207.776	5846.92
207.851	5955.56
207.925	6078.9
207.999	6184.81
208.073	6293.07
208.148	6397.09
208.222	6492.44
208.296	6639.81
208.371	6765.57
208.445	6889.01
208.519	7036.72
208.593	7162.03
208.668	7274.11
208.742	7385.99
208.816	7503.3
208.89	7645.49
208.965	7758.95
209.039	7883.65
209.113	8013.97
209.187	8159.94
209.261	8275.29
209.336	8413.5
209.41	8554.34
209.484	8673.32
209.558	8812.08
209.632	8942.65
209.707	9076.65
209.781	9222.56
209.855	9355.35
209.929	9494.34
210.003	9618.63
210.077	9732.43
210.151	9905.6
210.226	10065.05
210.3	10220.37
210.374	10362.08
210.448	10482.62
210.522	10609.96
210.596	10739.04
210.67	10868.74
210.744	11037.39
210.818	11180.88
210.892	11318.27
210.966	11422.94
211.041	11548.97
211.115	11665.89
211.189	11804.11
211.263	11938.24
211.337	12057.34
211.411	12183.82
211.485	12293.52
211.559	12418.75
211.633	12530.72
211.707	12604.86
211.781	12720.17
211.855	12789.73
211.929	12886.08
212.003	12969.48
212.077	13099.78
212.151	13219.91
212.225	13338.88
212.299	13427.77
212.373	13521.38
212.447	13617.17
212.52	13750.89
212.594	13852.85
212.668	13963.05
212.742	14043.55
212.816	14138.9
212.89	14228.42
212.964	14326.32
213.038	14420.8
213.112	14529.46
213.186	14642.83
213.26	14707.33
213.333	14747.82
213.407	14852.91
213.481	14953.32
213.555	15053.01
213.629	15119.09
213.703	15191.83
213.777	15275.84
213.85	15343.42
213.924	15466.05
213.998	15555.79
214.072	15628.62
214.146	15698.23
214.219	15778.58
214.293	15864.57
214.367	15946.94
214.441	16037.17
214.515	16108.21
214.588	16167.54
214.662	16216.46
214.736	16266.49
214.81	16362.51
214.883	16449.84
214.957	16506.43
215.031	16560.21
215.105	16598.82
215.178	16650.54
215.252	16705.19
215.326	16750.49
215.4	16786.93
215.473	16796.76
215.547	16842.07
215.621	16904.28
215.694	16979.03
215.768	17012.82
215.842	17066.17
215.915	17111.76
215.989	17137.64
216.063	17180.92
216.136	17233.69
216.21	17283.09
216.284	17355.33
216.357	17405.5
216.431	17451.47
216.504	17511.9
216.578	17594.84
216.652	17670.22
216.725	17730.36
216.799	17797.97
216.873	17849.97
216.946	17916.72
217.02	17963.13
217.093	18012.48
217.167	18032.81
217.24	18066.26
217.314	18115.08
217.387	18153.87
217.461	18196.13
217.535	18267.26
217.608	18307.55
217.682	18356.75
217.755	18426.05
217.829	18460.31
217.902	18505.13
217.976	18549.8
218.049	18586.81
218.123	18620.11
218.196	18673.99
218.27	18708.97
218.343	18745.45
218.417	18801.64
218.49	18853.83
218.563	18930.07
218.637	18974.02
218.71	19046.49
218.784	19102.44
218.857	19154.68
218.931	19200.22
219.004	19248.07
219.077	19305.66
219.151	19353.75
219.224	19401.7
219.298	19432.21
219.371	19490.23
219.444	19526.76
219.518	19578.75
219.591	19621.06
219.665	19691.33
219.738	19731.9
219.811	19773.35
219.885	19811.13
219.958	19852.23
220.031	19891.08
220.105	19933.39
220.178	19976.62
220.251	20011.46
220.325	20047.07
220.398	20092.37
220.471	20144.95
220.544	20198.3
220.618	20221.72
220.691	20268.85
220.764	20313.38
220.838	20347.74
220.911	20387.21
220.984	20450.73
221.057	20500.8
221.131	20540.51
221.204	20544.13
221.277	20601.77
221.35	20665.48
221.424	20702.35
221.497	20747.94
221.57	20792.9
221.643	20839.22
221.716	20890.84
221.79	20920.48
221.863	20956.58
221.936	20988.72
222.009	21018.41
222.082	21053.59
222.155	21088.39
222.229	21133.5
222.302	21161.12
222.375	21198.28
222.448	21225.22
222.521	21238.77
222.594	21256.41
222.667	21280.84
222.74	21312.51
222.814	21330.34
222.887	21351.69
222.96	21396.9
223.033	21425.05
223.106	21442.74
223.179	21468.96
223.252	21486.31
223.325	21512
223.398	21541.99
223.471	21566.81
223.544	21591.58
223.617	21609.32
223.69	21621.56
223.763	21619.1
223.837	21647.54
223.91	21676.03
223.983	21684.71
224.056	21693.14
224.129	21717.24
224.202	21739.94
224.275	21748.47
224.348	21746.79
224.42	21753.58
224.493	21750.31
224.566	21751.42
224.639	21771.47
224.712	21767.08
224.785	21771.56
224.858	21773.39
224.931	21767.47
225.004	21765.39
225.077	21770.79
225.15	21750.5
225.223	21759.18
225.296	21801.21
225.369	21791.33
225.442	21786.32
225.514	21785.54
225.587	21797.69
225.66	21802.17
225.733	21805.64
225.806	21824.44
225.879	21834.61
225.952	21821.65
226.025	21835.43
226.097	21849.94
226.17	21850.09
226.243	21840.88
226.316	21847.77
226.389	21861.9
226.461	21879.44
226.534	21888.07
226.607	21891.25
226.68	21923.6
226.753	21934.2
226.825	21901.28
226.898	21918.68
226.971	21914.53
227.044	21926.39
227.117	21925.91
227.189	21932.75
227.262	21947.84
227.335	21949.67
227.407	21948.13
227.48	21964.76
227.553	21960.76
227.626	21966.59
227.698	21969.29
227.771	21974.69
227.844	21955.94
227.916	21951.7
227.989	21927.02
228.062	21929.28
228.134	21947.22
228.207	21930.15
228.28	21908.8
228.352	21908.17
228.425	21897.37
228.498	21911.64
228.57	21905.62
228.643	21917.67
228.716	21909.76
228.788	21899.78
228.861	21893.32
228.934	21905.86
229.006	21901.42
229.079	21894.48
229.151	21869.17
229.224	21849.46
229.296	21843.14
229.369	21871.68
229.442	21875.92
229.514	21878.24
229.587	21876.98
229.659	21851.39
229.732	21851.97
229.804	21871.15
229.877	21896.22
229.949	21902
230.022	21907.45
230.094	21891.2
230.167	21880.46
230.239	21855
230.312	21848.59
230.384	21867.59
230.457	21858.62
230.529	21844.06
230.602	21843.68
230.674	21858.48
230.747	21856.69
230.819	21861.42
230.892	21819.19
230.964	21823.29
231.037	21815.87
231.109	21808.06
231.181	21801.65
231.254	21777.64
231.326	21753.11
231.399	21727.37
231.471	21711.56
231.544	21671.93
231.616	21683.31
231.688	21676.08
231.761	21666.54
231.833	21649.67
231.905	21600.6
231.978	21590.18
232.05	21582.76
232.122	21573.07
232.195	21540.59
232.267	21549.36
232.339	21528.58
232.412	21531.91
232.484	21496.63
232.556	21464.57
232.629	21471.08
232.701	21456.96
232.773	21456
232.846	21443.27
232.918	21432.96
232.99	21410.88
233.062	21402.59
233.135	21374.64
233.207	21341.62
233.279	21325.28
233.351	21311.21
233.424	21294.63
233.496	21261.66
233.568	21253.08
233.64	21214.47
233.713	21192.21
233.785	21160.01
233.857	21138.03
233.929	21098.42
234.001	21108.49
234.074	21121.41
234.146	21073.4
234.218	21064.44
234.29	21031.28
234.362	21003.23
234.434	20958.84
234.507	20926.84
234.579	20897.53
234.651	20869.49
234.723	20859.36
234.795	20846.06
234.867	20821.39
234.939	20815.89
235.012	20791.94
235.084	20773.82
235.156	20757.34
235.228	20729
235.3	20705.58
235.372	20689.53
235.444	20693.86
235.516	20633.43
235.588	20596.03
235.66	20570.58
235.732	20525.96
235.804	20559.16
235.876	20545.57
235.948	20545.09
236.02	20513.33
236.092	20480.42
236.164	20458.01
236.236	20426.78
236.308	20390.63
236.38	20360.51
236.452	20313.53
236.524	20282.92
236.596	20272.32
236.668	20255.41
236.74	20225.62
236.812	20196.95
236.884	20172.28
236.956	20127.36
237.028	20085.96
237.1	20041.2
237.172	20027.61
237.244	20023.7
237.316	19952.09
237.388	19913.53
237.46	19868.67
237.532	19858.16
237.604	19824.81
237.675	19812.04
237.747	19789.44
237.819	19759.95
237.891	19731.42
237.963	19696.24
238.035	19665.26
238.107	19581.11
238.178	19567.28
238.25	19541.89
238.322	19532.01
238.394	19475.05
238.466	19440.69
238.538	19427.68
238.609	19405.41
238.681	19357.61
238.753	19315.06
238.825	19287.64
238.897	19254.72
238.968	19230.44
239.04	19188.12
239.112	19177.52
239.184	19125.62
239.255	19084.76
239.327	19047.6
239.399	19020.95
239.471	18998.84
239.542	18972.33
239.614	18971.99
239.686	18904
239.758	18883.9
239.829	18837.74
239.901	18825.11
239.973	18796.1
240.044	18760.97
240.116	18733.84
240.188	18695.96
240.259	18649.8
240.331	18612.98
240.403	18580.16
240.474	18535.63
240.546	18492.99
240.618	18443.06
240.689	18409.71
240.761	18373.04
240.833	18358.34
240.904	18309.14
240.976	18278.3
241.048	18242.3
241.119	18204.08
241.191	18175.41
241.262	18155.17
241.334	18108.67
241.405	18067.51
241.477	18026.79
241.549	17994.12
241.62	17966.5
241.692	17939.37
241.763	17929.98
241.835	17884.68
241.906	17856.92
241.978	17808.97
242.049	17792.68
242.121	17776.92
242.192	17750.27
242.264	17708.34
242.335	17655.67
242.407	17639.28
242.478	17597.5
242.55	17574.9
242.621	17535.33
242.693	17498.56
242.764	17451.24
242.836	17418.03
242.907	17392.97
242.979	17360.92
243.05	17325.36
243.122	17290.42
243.193	17258.27
243.264	17189.79
243.336	17169.11
243.407	17139.76
243.479	17126.46
243.55	17091.09
243.622	17051.28
243.693	17019.95
243.764	17005.16
243.836	16966.22
243.907	16922.02
243.978	16888.38
244.05	16856.52
244.121	16807.65
244.192	16783.31
244.264	16735.17
244.335	16704.95
244.407	16655.74
244.478	16628.32
244.549	16595.21
244.62	16547.93
244.692	16507.2
244.763	16494.28
244.834	16444.26
244.906	16411.63
244.977	16384.54
245.048	16367.19
245.119	16329.11
245.191	16284.87
245.262	16224.91
245.333	16213.34
245.405	16182.64
245.476	16164.13
245.547	16134.68
245.618	16112.18
245.689	16075.21
245.761	16051.25
245.832	16019.92
245.903	15992.84
245.974	15961.02
246.045	15925.16
246.117	15913.98
246.188	15870.65
246.259	15822.16
246.33	15792.61
246.401	15745.04
246.473	15694.57
246.544	15655.24
246.615	15630.13
246.686	15594.51
246.757	15582.99
246.828	15532.09
246.899	15522.69
246.97	15463.89
247.042	15419.11
247.113	15395.83
247.184	15400.69
247.255	15356.88
247.326	15327.23
247.397	15294.07
247.468	15267.8
247.539	15239.56
247.61	15190.2
247.681	15173.86
247.752	15164.79
247.823	15122.13
247.894	15100.97
247.965	15059.37
248.037	15021.15
248.108	14976.7
248.179	14943.25
248.25	14908.98
248.321	14885.94
248.392	14836.67
248.463	14835.85
248.534	14804.47
248.605	14778.54
248.675	14735.59
248.746	14728.6
248.817	14706.43
248.888	14691.29
248.959	14649.88
249.03	14625.69
249.101	14603.7
249.172	14565.91
249.243	14501.46
249.314	14501.61
249.385	14469.79
249.456	14455.52
249.527	14426.5
249.598	14407.85
249.669	14385.38
249.739	14359.16
249.81	14333.42
249.881	14293.55
249.952	14265.35
250.023	14235.51
250.094	14195.31
250.165	14155.01
250.235	14117.5
250.306	14086.22
250.377	14037.68
250.448	14014.97
250.519	13967.44
250.59	13958.57
250.66	13934.32
250.731	13929.64
250.802	13893.25
250.873	13869.53
250.944	13848.18
251.014	13813.13
251.085	13811.73
251.156	13795.49
251.227	13789.56
251.297	13787.39
251.368	13774.28
251.439	13753.21
251.51	13748.77
251.58	13715.99
251.651	13684.56
251.722	13670.78
251.792	13629.9
251.863	13607.53
251.934	13598.42
252.005	13604.54
252.075	13570.89
252.146	13565.83
252.217	13560.67
252.287	13549.68
252.358	13533.53
252.429	13530.3
252.499	13506.83
252.57	13489.18
252.641	13473.08
252.711	13444.45
252.782	13398.02
252.852	13396.72
252.923	13377.97
252.994	13354.4
253.064	13347.84
253.135	13314.1
253.205	13280.64
253.276	13273.84
253.347	13273.65
253.417	13237.3
253.488	13212.43
253.558	13182.54
253.629	13158.24
253.699	13133.03
253.77	13113.94
253.841	13086.27
253.911	13062.6
253.982	13042.69
254.052	13027.17
254.123	13012.57
254.193	12987.74
254.264	13011.46
254.334	12973.08
254.405	12931.1
254.475	12893.59
254.546	12866.94
254.616	12869.68
254.687	12856.67
254.757	12842.01
254.827	12807.4
254.898	12790.29
254.968	12765.95
255.039	12744.06
255.109	12722.13
255.18	12690.99
255.25	12645.72
255.321	12633.14
255.391	12599.78
255.461	12597.66
255.532	12543.09
255.602	12511.18
255.673	12468.52
255.743	12437.48
255.813	12399.49
255.884	12392.89
255.954	12385.13
256.024	12381.03
256.095	12361.03
256.165	12322.41
256.235	12313.45
256.306	12292.05
256.376	12283.56
256.446	12268.81
256.517	12250.98
256.587	12240.76
256.657	12230.3
256.728	12213.19
256.798	12190.97
256.868	12168.55
256.938	12140.55
257.009	12137.99
257.079	12131.63
257.149	12141.03
257.219	12092
257.29	12075.28
257.36	12039.61
257.43	12023.46
257.5	11981.67
257.571	11950.34
257.641	11940.56
257.711	11903.06
257.781	11892.02
257.852	11881.27
257.922	11845.84
257.992	11826.47
258.062	11806.8
258.132	11798.22
258.202	11779.57
258.273	11771.13
258.343	11764.82
258.413	11747.13
258.483	11726.89
258.553	11689.72
258.623	11669.96
258.693	11668.56
258.764	11668.56
258.834	11664.32
258.904	11649.91
258.974	11628.03
259.044	11610.2
259.114	11597.23
259.184	11581.47
259.254	11560.03
259.324	11522.05
259.394	11507.59
259.464	11510.29
259.535	11485.22
259.605	11455.34
259.675	11429.99
259.745	11402.81
259.815	11378.08
259.885	11347.14
259.955	11351.58
260.025	11325.8
260.095	11297.99
260.165	11276.64
260.235	11279.53
260.305	11255.58
260.375	11229.89
260.445	11240.68
260.515	11238.61
260.585	11239.57
260.655	11221.55
260.725	11212.44
260.795	11202.56
260.865	11208.35
260.934	11181.6
261.004	11176.97
261.074	11159.14
261.144	11164.73
261.214	11164.59
261.284	11143.24
261.354	11141.6
261.424	11112.44
261.494	11124.25
261.564	11111.19
261.634	11103.48
261.703	11058.61
261.773	11048.35
261.843	11039.67
261.913	11016.06
