Data from 20250703_urea_0.1M_MAYP1162681_05-11-05-526.txt Node
Date: Fri Jul 04 05:11:05 BST 2025
User: adleo
Spectrometer: MAYP116268
Trigger mode: 0
Integration Time (sec): 1.000000E0
Scans to average: 1
Electric dark correction enabled: true
Nonlinearity correction enabled: true
Boxcar width: 10
XAxis mode: Wavelengths
Number of Pixels in Spectrum: 2068
>>>>>Begin Spectral Data<<<<<
179.565	1264.92
179.642	1322.1
179.718	1370.17
179.795	1412.74
179.871	1448.96
179.948	1469.86
180.024	1490.47
180.101	1512.57
180.177	1528.29
180.254	1553.03
180.33	1575.31
180.407	1632.14
180.483	1730.49
180.56	1827.98
180.636	1918.24
180.712	1904.17
180.789	1916.1
180.865	1927.36
180.942	1938.01
181.018	1948.23
181.095	1963.31
181.171	1967.16
181.248	1971.3
181.324	1984.33
181.4	1990.61
181.477	2002.5
181.553	2017.38
181.63	2039.69
181.706	2057.76
181.782	2065.13
181.859	2062.13
181.935	2070.41
182.011	2069.65
182.088	2087.96
182.164	2105.61
182.24	2117.31
182.317	2127.11
182.393	2125.83
182.469	2137.57
182.546	2151.56
182.622	2157.88
182.698	2150.75
182.775	2161.74
182.851	2174.44
182.927	2168.68
183.003	2164.78
183.08	2157.65
183.156	2168.07
183.232	2164.45
183.308	2153.18
183.385	2163.31
183.461	2183.53
183.537	2184.29
183.613	2196.32
183.69	2190.19
183.766	2180.86
183.842	2188.14
183.918	2193.23
183.995	2207.31
184.071	2215.31
184.147	2208.74
184.223	2196.47
184.299	2210.32
184.375	2201.18
184.452	2206.18
184.528	2258.87
184.604	2267.62
184.68	2280.18
184.756	2282.7
184.832	2285.13
184.908	2289.69
184.985	2288.55
185.061	2271.66
185.137	2282.37
185.213	2272
185.289	2272
185.365	2260.77
185.441	2260.44
185.517	2275.43
185.593	2266.44
185.669	2262.63
185.745	2276.39
185.822	2293.27
185.898	2285.99
185.974	2294.93
186.05	2290.27
186.126	2255
186.202	2250.24
186.278	2245.34
186.354	2237.39
186.43	2247.06
186.506	2245.11
186.582	2244.3
186.658	2251
186.734	2226.12
186.81	2225.22
186.886	2226.84
186.962	2242.06
187.038	2240.16
187.114	2230.44
187.19	2239.2
187.266	2228.16
187.341	2227.4
187.417	2221.55
187.493	2220.22
187.569	2221.79
187.645	2214.89
187.721	2200.23
187.797	2207.22
187.873	2212.7
187.949	2205.61
188.025	2197.47
188.101	2200.51
188.176	2205.84
188.252	2201.8
188.328	2212.26
188.404	2215.16
188.48	2210.88
188.556	2201.36
188.632	2197.99
188.707	2200.18
188.783	2197.27
188.859	2192.56
188.935	2182.95
189.011	2191.04
189.086	2187.09
189.162	2179.91
189.238	2177.2
189.314	2177.24
189.39	2171.25
189.465	2162.68
189.541	2181.29
189.617	2166.45
189.693	2160.36
189.768	2165.02
189.844	2192.06
189.92	2184.4
189.996	2192.68
190.071	2203.72
190.147	2206.05
190.223	2217
190.298	2206.67
190.374	2192.45
190.45	2203.86
190.526	2210.09
190.601	2202.24
190.677	2203.67
190.753	2231.95
190.828	2234.9
190.904	2248.32
190.98	2264.02
191.055	2275.3
191.131	2265.64
191.207	2288.91
191.282	2301.61
191.358	2289.86
191.433	2272.81
191.509	2283.89
191.585	2280.51
191.66	2282.13
191.736	2289.13
191.811	2278.75
191.887	2297.08
191.963	2322.3
192.038	2328.96
192.114	2326.92
192.189	2330.72
192.265	2326.39
192.34	2305.54
192.416	2305.3
192.491	2301.68
192.567	2305.63
192.642	2307.68
192.718	2307.73
192.793	2294.59
192.869	2289.03
192.944	2292.16
193.02	2300.73
193.095	2306.49
193.171	2312.73
193.246	2313.39
193.322	2310.35
193.397	2311.68
193.473	2295.97
193.548	2277.55
193.624	2286.02
193.699	2286.93
193.775	2304.11
193.85	2305.97
193.925	2312.73
194.001	2313.3
194.076	2305.16
194.152	2292.21
194.227	2283.07
194.302	2273.61
194.378	2277.65
194.453	2276.18
194.529	2288.98
194.604	2272.84
194.679	2267.8
194.755	2248.25
194.83	2260.63
194.905	2258.11
194.981	2266.67
195.056	2260.16
195.131	2268.24
195.207	2265.44
195.282	2257.82
195.357	2239.26
195.433	2256.05
195.508	2243.54
195.583	2248.39
195.659	2263.05
195.734	2272.1
195.809	2272.9
195.884	2282.47
195.96	2283.75
196.035	2298.12
196.11	2294.93
196.185	2310.07
196.261	2312.5
196.336	2343.62
196.411	2330.52
196.486	2336.76
196.561	2330.95
196.637	2340.47
196.712	2358.9
196.787	2360.37
196.862	2372.36
196.937	2384.17
197.013	2389.26
197.088	2400.97
197.163	2422.78
197.238	2439.79
197.313	2439.5
197.388	2454.21
197.464	2486.5
197.539	2496.26
197.614	2486.55
197.689	2499.74
197.764	2516.13
197.839	2537.36
197.914	2532.6
197.989	2553.65
198.065	2568.51
198.14	2621.22
198.215	2648.65
198.29	2655.42
198.365	2670.61
198.44	2685.61
198.515	2713.06
198.59	2729.07
198.665	2759.85
198.74	2770.9
198.815	2771.28
198.89	2793.58
198.965	2823.51
199.04	2818.6
199.115	2834.85
199.19	2883.4
199.265	2884.93
199.34	2894.13
199.415	2929.65
199.49	2953.19
199.565	2962.96
199.64	2984.84
199.715	2980.5
199.79	2988.13
199.865	2994.37
199.94	2992.61
200.015	3024.08
200.09	3030.09
200.165	3039.91
200.24	3045.97
200.315	3088.06
200.39	3104.75
200.464	3114.86
200.539	3114.29
200.614	3128.35
200.689	3154.78
200.764	3163.46
200.839	3182.62
200.914	3187.73
200.989	3179.61
201.063	3193.06
201.138	3174.24
201.213	3176.91
201.288	3157.36
201.363	3163.89
201.438	3168.47
201.512	3184.68
201.587	3167.98
201.662	3174.66
201.737	3183.82
201.812	3191.88
201.886	3159.28
201.961	3172.49
202.036	3159.19
202.111	3158.52
202.186	3132.17
202.26	3112.56
202.335	3090.71
202.41	3087.85
202.485	3070.03
202.559	3046.61
202.634	3020.96
202.709	3035.49
202.784	3018.38
202.858	3022.09
202.933	3003.93
203.008	2999.88
203.082	2983.72
203.157	2988.2
203.232	2950.31
203.306	2932.85
203.381	2903.72
203.456	2884.69
203.53	2865.61
203.605	2851.74
203.68	2835.87
203.754	2837.44
203.829	2832.53
203.904	2816.37
203.978	2812.84
204.053	2829.81
204.127	2832.67
204.202	2846.21
204.277	2843.16
204.351	2850.31
204.426	2855.36
204.5	2865.47
204.575	2849.22
204.65	2878.07
204.724	2891.19
204.799	2916.11
204.873	2935.62
204.948	2959.69
205.022	2975.52
205.097	2995.18
205.171	3039.23
205.246	3076.73
205.32	3109.58
205.395	3147.8
205.469	3181.98
205.544	3226.89
205.618	3251.04
205.693	3306.69
205.767	3337.14
205.842	3402.64
205.916	3445.5
205.991	3490.66
206.065	3548.68
206.14	3618.88
206.214	3671.11
206.289	3721.38
206.363	3799.1
206.438	3863.19
206.512	3933.44
206.586	4016.97
206.661	4090.28
206.735	4140.08
206.81	4211.83
206.884	4298.13
206.958	4355.09
207.033	4447.29
207.107	4531.06
207.181	4643.41
207.256	4715.59
207.33	4818.12
207.405	4917.93
207.479	5025.72
207.553	5118.72
207.628	5185.38
207.702	5286.79
207.776	5371.52
207.851	5462.39
207.925	5571.68
207.999	5664.74
208.073	5760.45
208.148	5858.59
208.222	5945.56
208.296	6079.53
208.371	6197.71
208.445	6317.03
208.519	6446.89
208.593	6556.59
208.668	6660.13
208.742	6765.35
208.816	6870.46
208.89	6987.6
208.965	7084.68
209.039	7189.97
209.113	7308.28
209.187	7445.69
209.261	7543.34
209.336	7669.78
209.41	7799.45
209.484	7899.01
209.558	8028.53
209.632	8149.11
209.707	8265.47
209.781	8394.15
209.855	8509.88
209.929	8640.43
210.003	8744.43
210.077	8850.75
210.151	9007.46
210.226	9141.74
210.3	9273.88
210.374	9399.81
210.448	9510.56
210.522	9626.14
210.596	9744.6
210.67	9856.04
210.744	9998.81
210.818	10141.08
210.892	10266.04
210.966	10359.54
211.041	10472.99
211.115	10567.56
211.189	10689.31
211.263	10803.21
211.337	10910.03
211.411	11021.58
211.485	11103.85
211.559	11218.34
211.633	11313.22
211.707	11380.65
211.781	11477.24
211.855	11540.66
211.929	11631.7
212.003	11709.3
212.077	11819.14
212.151	11931.21
212.225	12038.21
212.299	12125.7
212.373	12207.93
212.447	12292.24
212.52	12416.02
212.594	12508.14
212.668	12612.59
212.742	12688.8
212.816	12775.62
212.89	12851.93
212.964	12944.39
213.038	13037.09
213.112	13127.28
213.186	13237.09
213.26	13301.35
213.333	13353.03
213.407	13438.64
213.481	13530.52
213.555	13620.33
213.629	13688.68
213.703	13744.7
213.777	13830.7
213.85	13886.43
213.924	13996.43
213.998	14074.38
214.072	14144.37
214.146	14209.45
214.219	14277.76
214.293	14346.5
214.367	14421.17
214.441	14512.13
214.515	14576.05
214.588	14620.64
214.662	14662.24
214.736	14705.87
214.81	14785.21
214.883	14861.09
214.957	14923.08
215.031	14969.02
215.105	15020.02
215.178	15066.24
215.252	15122.25
215.326	15157.83
215.4	15205.45
215.473	15224.54
215.547	15264.93
215.621	15312.99
215.694	15382.45
215.768	15421.54
215.842	15472.63
215.915	15520.45
215.989	15548.55
216.063	15589.33
216.136	15654.98
216.21	15716.53
216.284	15784.01
216.357	15842.47
216.431	15891.35
216.504	15951.16
216.578	16030.4
216.652	16084.72
216.725	16149.89
216.799	16217.03
216.873	16271.68
216.946	16327.69
217.02	16369.19
217.093	16422.4
217.167	16449.92
217.24	16480.67
217.314	16533.15
217.387	16575.57
217.461	16621.64
217.535	16690.71
217.608	16725.26
217.682	16770.37
217.755	16827.25
217.829	16865.46
217.902	16906.53
217.976	16950.86
218.049	16988.46
218.123	17015.69
218.196	17070.34
218.27	17094.39
218.343	17118.34
218.417	17160.94
218.49	17214.34
218.563	17277.91
218.637	17328.22
218.71	17400.37
218.784	17457.28
218.857	17517.33
218.931	17570.01
219.004	17615.55
219.077	17665.91
219.151	17722.97
219.224	17765.38
219.298	17811.21
219.371	17862.48
219.444	17901.95
219.518	17955.25
219.591	18004.31
219.665	18077.37
219.738	18124.83
219.811	18170.86
219.885	18240.4
219.958	18292.54
220.031	18328.15
220.105	18370.8
220.178	18415.71
220.251	18447.66
220.325	18502.41
220.398	18545.49
220.471	18596.33
220.544	18647.7
220.618	18676.42
220.691	18715.6
220.764	18756.27
220.838	18805.67
220.911	18849.18
220.984	18911.15
221.057	18959.39
221.131	19004.69
221.204	19018.38
221.277	19081.12
221.35	19158.99
221.424	19195.96
221.497	19244
221.57	19285.73
221.643	19335.85
221.716	19382.4
221.79	19410.5
221.863	19437.15
221.936	19474.59
222.009	19514.2
222.082	19557.77
222.155	19594.34
222.229	19660.51
222.302	19709.85
222.375	19734.34
222.448	19776.02
222.521	19804.5
222.594	19827.78
222.667	19843.53
222.74	19889.07
222.814	19914.18
222.887	19934.52
222.96	19972.01
223.033	20005.55
223.106	20038.37
223.179	20058.56
223.252	20089.31
223.325	20125.16
223.398	20160.15
223.471	20189.64
223.544	20217.26
223.617	20241.4
223.69	20269.26
223.763	20269.79
223.837	20290.22
223.91	20328.53
223.983	20332.73
224.056	20340.49
224.129	20367.81
224.202	20401.21
224.275	20415.91
224.348	20417.26
224.42	20413.21
224.493	20405.54
224.566	20419.47
224.639	20443.42
224.712	20464.68
224.785	20472.63
224.858	20488.2
224.931	20495.28
225.004	20494.41
225.077	20501.11
225.15	20485.35
225.223	20498.32
225.296	20537.84
225.369	20533.98
225.442	20529.84
225.514	20548.63
225.587	20572.58
225.66	20585.16
225.733	20604.2
225.806	20619.57
225.879	20641.4
225.952	20656.1
226.025	20693.79
226.097	20725.7
226.17	20739
226.243	20726.03
226.316	20736.11
226.389	20752.78
226.461	20762.71
226.534	20779.14
226.607	20787.05
226.68	20827.82
226.753	20844.88
226.825	20827.58
226.898	20854.95
226.971	20862.04
227.044	20879.44
227.117	20882.38
227.189	20896.83
227.262	20903.82
227.335	20919.15
227.407	20919
227.48	20930.09
227.553	20936.5
227.626	20930.28
227.698	20928.45
227.771	20946.91
227.844	20939.34
227.916	20938.33
227.989	20937.9
228.062	20940.21
228.134	20965.03
228.207	20963.29
228.28	20951.29
228.352	20958.38
228.425	20959.15
228.498	20971.78
228.57	20957.8
228.643	20977.18
228.716	20977.13
228.788	20976.6
228.861	20967.87
228.934	20977.08
229.006	20976.31
229.079	20959.01
229.151	20954.19
229.224	20946.04
229.296	20938.38
229.369	20972.31
229.442	20995.3
229.514	20992.7
229.587	21009.32
229.659	20988.55
229.732	20986.29
229.804	20998.67
229.877	21012.07
229.949	21017.32
230.022	21029.23
230.094	21023.93
230.167	21013.37
230.239	21001.32
230.312	20992.17
230.384	21013.66
230.457	21015.98
230.529	21011.16
230.602	21013.23
230.674	21006.72
230.747	21013.04
230.819	21038
230.892	21000.36
230.964	20995.49
231.037	20997.61
231.109	20983.35
231.181	20984.12
231.254	20969.9
231.326	20957.75
231.399	20946.86
231.471	20938.04
231.544	20913.7
231.616	20923.82
231.688	20926.96
231.761	20913.8
231.833	20903.49
231.905	20857.94
231.978	20853.36
232.05	20850.62
232.122	20846.09
232.195	20830.95
232.267	20827.67
232.339	20799.09
232.412	20797.75
232.484	20774.37
232.556	20751.33
232.629	20757.79
232.701	20751.57
232.773	20743.38
232.846	20727.67
232.918	20724.88
232.99	20709.79
233.062	20702.9
233.135	20681.74
233.207	20650.17
233.279	20645.69
233.351	20637.79
233.424	20622.7
233.496	20598.85
233.568	20597.45
233.64	20567.14
233.713	20555.62
233.785	20545.79
233.857	20530.9
233.929	20500.1
234.001	20498.56
234.074	20499.96
234.146	20463.14
234.218	20446.7
234.29	20420.58
234.362	20393.21
234.434	20348.58
234.507	20324.1
234.579	20286.41
234.651	20264.92
234.723	20248.68
234.795	20228.58
234.867	20201.16
234.939	20199.19
235.012	20173.4
235.084	20153.12
235.156	20137.21
235.228	20093.6
235.3	20062.95
235.372	20044.88
235.444	20042.23
235.516	19988.73
235.588	19961.12
235.66	19945.6
235.732	19908.06
235.804	19948.11
235.876	19937.36
235.948	19936.93
236.02	19908.88
236.092	19884.98
236.164	19865.75
236.236	19836.36
236.308	19806.14
236.38	19791.44
236.452	19759.3
236.524	19743.11
236.596	19742.48
236.668	19730.43
236.74	19722.67
236.812	19698.82
236.884	19684.6
236.956	19659.11
237.028	19626.01
237.1	19588.66
237.172	19577.38
237.244	19573.33
237.316	19501.53
237.388	19460.95
237.46	19419.6
237.532	19408.09
237.604	19373.1
237.675	19366.93
237.747	19344.48
237.819	19307.66
237.891	19278.84
237.963	19244.72
238.035	19199.71
238.107	19114.42
238.178	19087.77
238.25	19057.65
238.322	19052.59
238.394	19000.45
238.466	18957.37
238.538	18939.73
238.609	18926.48
238.681	18868.31
238.753	18821.57
238.825	18800.27
238.897	18784.03
238.968	18770.49
239.04	18724.47
239.112	18737.82
239.184	18689.19
239.255	18661.24
239.327	18627.89
239.399	18597.68
239.471	18582.98
239.542	18563.51
239.614	18563.85
239.686	18511.66
239.758	18489.68
239.829	18440.87
239.901	18427.42
239.973	18402.22
240.044	18374.03
240.116	18336.63
240.188	18303.38
240.259	18275.04
240.331	18234.37
240.403	18207.96
240.474	18155.77
240.546	18118.38
240.618	18047.49
240.689	18008.02
240.761	17975.49
240.833	17972.84
240.904	17942
240.976	17901.86
241.048	17868.65
241.119	17837.66
241.191	17815.26
241.262	17794.2
241.334	17756.51
241.405	17715.84
241.477	17674.44
241.549	17644.95
241.62	17614.44
241.692	17590.25
241.763	17567.79
241.835	17531.69
241.906	17494.83
241.978	17451.12
242.049	17439.41
242.121	17425.81
242.192	17410.68
242.264	17364.66
242.335	17305.52
242.407	17284.9
242.478	17239.5
242.55	17212.56
242.621	17168.51
242.693	17126.2
242.764	17091.06
242.836	17052.22
242.907	17027.4
242.979	17012.75
243.05	16983.54
243.122	16956.02
243.193	16928.89
243.264	16871.83
243.336	16839.63
243.407	16817.7
243.479	16807.63
243.55	16777.17
243.622	16745.84
243.693	16707.96
243.764	16699.24
243.836	16658.56
243.907	16611.96
243.978	16583.9
244.05	16554.31
244.121	16504.91
244.192	16485.87
244.264	16427.75
244.335	16399.21
244.407	16348.37
244.478	16319.5
244.549	16280.89
244.62	16238.77
244.692	16196.11
244.763	16179.48
244.834	16143.86
244.906	16106.22
244.977	16076.34
245.048	16060.58
245.119	16017.39
245.191	15974.93
245.262	15911.11
245.333	15904.27
245.405	15871.16
245.476	15845.37
245.547	15807.2
245.618	15785.26
245.689	15758.9
245.761	15734.85
245.832	15700.87
245.903	15682.16
245.974	15644.33
246.045	15608.61
246.117	15590.63
246.188	15547.11
246.259	15501.27
246.33	15469.74
246.401	15424.24
246.473	15374.64
246.544	15330.25
246.615	15305.42
246.686	15277.52
246.757	15266.67
246.828	15219.14
246.899	15206.75
246.97	15168.05
247.042	15136.76
247.113	15124.23
247.184	15109.63
247.255	15069.86
247.326	15036.16
247.397	14989.5
247.468	14961.5
247.539	14931.56
247.61	14881.72
247.681	14859.16
247.752	14849.09
247.823	14802.86
247.894	14785.7
247.965	14749.25
248.037	14710.6
248.108	14668.18
248.179	14638.14
248.25	14606.28
248.321	14585.89
248.392	14548.29
248.463	14535.13
248.534	14502.01
248.605	14472.32
248.675	14438.72
248.746	14432.6
248.817	14412.26
248.888	14401.27
248.959	14350.07
249.03	14334.89
249.101	14317.44
249.172	14288.66
249.243	14234.62
249.314	14230.62
249.385	14204.97
249.456	14187.96
249.527	14164.24
249.598	14148.14
249.669	14119.02
249.739	14092.7
249.81	14073.47
249.881	14026.37
249.952	13998.89
250.023	13975.32
250.094	13930.3
250.165	13891.88
250.235	13854.61
250.306	13834.32
250.377	13791.85
250.448	13780.13
250.519	13726.77
250.59	13713.27
250.66	13687.09
250.731	13675.52
250.802	13639.03
250.873	13613.48
250.944	13585.14
251.014	13550.33
251.085	13541.22
251.156	13519.82
251.227	13509.6
251.297	13501.31
251.368	13497.74
251.439	13482.46
251.51	13465.15
251.58	13427.55
251.651	13392.75
251.722	13377.51
251.792	13334.9
251.863	13314.7
251.934	13305.68
252.005	13304.58
252.075	13274.3
252.146	13259.79
252.217	13255.6
252.287	13247.88
252.358	13222.29
252.429	13216.65
252.499	13186.32
252.57	13171.38
252.641	13157.83
252.711	13126.79
252.782	13084.99
252.852	13075.21
252.923	13046.72
252.994	13028.74
253.064	13032.21
253.135	13007.77
253.205	12981.35
253.276	12975.28
253.347	12972
253.417	12936.28
253.488	12920.27
253.558	12899.5
253.629	12879.69
253.699	12864.98
253.77	12844.98
253.841	12825.89
253.911	12803.57
253.982	12784.62
254.052	12767.94
254.123	12749.63
254.193	12729.96
254.264	12738.2
254.334	12705.86
254.405	12671.53
254.475	12634.8
254.546	12600.67
254.616	12595.18
254.687	12572.47
254.757	12561.1
254.827	12529.86
254.898	12512.94
254.968	12489.42
255.039	12459.19
255.109	12445.7
255.18	12403.47
255.25	12359.99
255.321	12337.58
255.391	12314.44
255.461	12316.8
255.532	12260.02
255.602	12230.66
255.673	12191.18
255.743	12169.3
255.813	12123.6
255.884	12119.55
255.954	12110.15
256.024	12121.53
256.095	12096.75
256.165	12063.78
256.235	12048.94
256.306	12025.32
256.376	12016.69
256.446	12003.68
256.517	11991.48
256.587	11984.49
256.657	11972.97
256.728	11955.43
256.798	11938.17
256.868	11912
256.938	11878.35
257.009	11871.94
257.079	11865.05
257.149	11878.88
257.219	11838.73
257.29	11830.97
257.36	11794.97
257.43	11788.27
257.5	11741.08
257.571	11715.2
257.641	11712.79
257.711	11684.16
257.781	11666.42
257.852	11647.24
257.922	11609.07
257.992	11588.1
258.062	11561.83
258.132	11550.02
258.202	11535.37
258.273	11519.42
258.343	11516.72
258.413	11491.9
258.483	11476.09
258.553	11442.5
258.623	11404.81
258.693	11393.62
258.764	11395.6
258.834	11392.42
258.904	11372.18
258.974	11348.51
259.044	11333.43
259.114	11320.61
259.184	11298.39
259.254	11289.72
259.324	11266.63
259.394	11255.55
259.464	11254.83
259.535	11229.72
259.605	11204.85
259.675	11181.48
259.745	11166.58
259.815	11138.78
259.885	11118.92
259.955	11137.29
260.025	11108.47
260.095	11097.67
260.165	11081.77
260.235	11074.73
260.305	11049.15
260.375	11023.84
260.445	11024.9
260.515	11026.3
260.585	11018.11
260.655	11004.47
260.725	10990.88
260.795	10975.99
260.865	10979.51
260.934	10947.85
261.004	10936.09
261.074	10924.33
261.144	10929.58
261.214	10927.51
261.284	10909.97
261.354	10908.09
261.424	10880.77
261.494	10889.73
261.564	10871.75
261.634	10855.66
261.703	10816.29
261.773	10805.55
261.843	10790.46
261.913	10770.08
261.983	10731.48
