Data from 20250703_urea_0.1M_MAYP1162681_12-21-05-345.txt Node
Date: Thu Jul 03 12:21:05 BST 2025
User: adleo
Spectrometer: MAYP116268
Trigger mode: 0
Integration Time (sec): 1.000000E0
Scans to average: 1
Electric dark correction enabled: true
Nonlinearity correction enabled: true
Boxcar width: 10
XAxis mode: Wavelengths
Number of Pixels in Spectrum: 2068
>>>>>Begin Spectral Data<<<<<
179.565	1138.58
179.642	1194.76
179.718	1233.94
179.795	1270.94
179.871	1302.54
179.948	1320.96
180.024	1340.56
180.101	1362.03
180.177	1376.14
180.254	1397.03
180.33	1420.11
180.407	1470.48
180.483	1562.07
180.56	1648.49
180.636	1728.63
180.712	1718.07
180.789	1728.67
180.865	1738.55
180.942	1747.67
181.018	1757.89
181.095	1772.43
181.171	1775.19
181.248	1773.76
181.324	1789.26
181.4	1795.39
181.477	1805.99
181.553	1816.35
181.63	1837.12
181.706	1852.76
181.782	1861.98
181.859	1862.36
181.935	1867.26
182.011	1864.17
182.088	1879.19
182.164	1898.4
182.24	1910.24
182.317	1919.08
182.393	1917.13
182.469	1931.63
182.546	1944.04
182.622	1948.6
182.698	1943.89
182.775	1954.88
182.851	1971.37
182.927	1966.48
183.003	1964.53
183.08	1957.49
183.156	1967.19
183.232	1963.53
183.308	1952.31
183.385	1960.29
183.461	1975.7
183.537	1975.18
183.613	1984.64
183.69	1975.89
183.766	1963.33
183.842	1970.89
183.918	1973.46
183.995	1987.63
184.071	1992.53
184.147	1988.3
184.223	1978.6
184.299	1991.82
184.375	1982.74
184.452	1989.54
184.528	2036.63
184.604	2044.09
184.68	2057.55
184.756	2065.68
184.832	2068.82
184.908	2074.24
184.985	2073.29
185.061	2058.26
185.137	2070.53
185.213	2062.97
185.289	2066.06
185.365	2060.79
185.441	2059.45
185.517	2072.2
185.593	2068.78
185.669	2064.54
185.745	2072.58
185.822	2085.85
185.898	2074.86
185.974	2083.51
186.05	2075.09
186.126	2040.18
186.202	2037.09
186.278	2032.76
186.354	2021.87
186.43	2029.01
186.506	2026.3
186.582	2024.4
186.658	2032.62
186.734	2008.94
186.81	2008.8
186.886	2008.94
186.962	2018.69
187.038	2017.83
187.114	2011.74
187.19	2020.45
187.266	2011.18
187.341	2013.6
187.417	2007.28
187.493	2008.13
187.569	2010.94
187.645	2003.19
187.721	1992.72
187.797	1997.34
187.873	1999.76
187.949	1997.58
188.025	1991.06
188.101	1994.62
188.176	2000.19
188.252	1994.58
188.328	2004.27
188.404	2006.17
188.48	2005.37
188.556	2000.04
188.632	1998.23
188.707	1998.95
188.783	1993.24
188.859	1990.34
188.935	1978.88
189.011	1989.1
189.086	1985.87
189.162	1976.79
189.238	1974.55
189.314	1972.6
189.39	1967.37
189.465	1963.09
189.541	1977.98
189.617	1966.09
189.693	1962.05
189.768	1965.48
189.844	1987.83
189.92	1979.13
189.996	1985.89
190.071	1992.45
190.147	1992.59
190.223	2000.87
190.298	1996.87
190.374	1986.51
190.45	1998.15
190.526	2007.43
190.601	2001.39
190.677	2000.06
190.753	2026.13
190.828	2028.12
190.904	2041.87
190.98	2057.75
191.055	2067.31
191.131	2057.75
191.207	2074.83
191.282	2083
191.358	2075.96
191.433	2062.88
191.509	2075.62
191.585	2074.34
191.66	2078.47
191.736	2088.22
191.811	2078.14
191.887	2089.18
191.963	2111.11
192.038	2114.01
192.114	2116.62
192.189	2119.53
192.265	2116.48
192.34	2095.93
192.416	2098.92
192.491	2095.02
192.567	2094.64
192.642	2096.78
192.718	2096.83
192.793	2085.42
192.869	2080.66
192.944	2080.37
193.02	2090.13
193.095	2092.79
193.171	2098.59
193.246	2097.4
193.322	2093.36
193.397	2097.02
193.473	2084.27
193.548	2066.34
193.624	2071.71
193.699	2067.91
193.775	2082.33
193.85	2085.46
193.925	2094.45
194.001	2091.46
194.076	2084.7
194.152	2079.33
194.227	2070.48
194.302	2061.59
194.378	2064.2
194.453	2064.01
194.529	2076.95
194.604	2060.3
194.679	2053.65
194.755	2034.1
194.83	2043.86
194.905	2039.96
194.981	2045.33
195.056	2040.96
195.131	2045
195.207	2045.05
195.282	2037.39
195.357	2019.27
195.433	2033.39
195.508	2022.36
195.583	2028.73
195.659	2043.86
195.734	2049.04
195.809	2050.75
195.884	2058.98
195.96	2061.69
196.035	2075.39
196.11	2069.2
196.185	2081.9
196.261	2086.75
196.336	2116.15
196.411	2103.96
196.486	2110.67
196.561	2106.87
196.637	2112.43
196.712	2127.75
196.787	2127.46
196.862	2141.78
196.937	2151.77
197.013	2158.57
197.088	2171.32
197.163	2195.02
197.238	2210.26
197.313	2210.97
197.388	2223.29
197.464	2252.76
197.539	2264.13
197.614	2256.09
197.689	2268.74
197.764	2285.64
197.839	2304.87
197.914	2301.2
197.989	2320.76
198.065	2334.04
198.14	2382.14
198.215	2408.84
198.29	2424.22
198.365	2440.79
198.44	2448.83
198.515	2477.11
198.59	2491.68
198.665	2515.97
198.74	2520.35
198.815	2522.64
198.89	2546.11
198.965	2573.26
199.04	2571.69
199.115	2584.36
199.19	2625.78
199.265	2629.92
199.34	2640.5
199.415	2672.23
199.49	2691.28
199.565	2705.62
199.64	2724.29
199.715	2721.24
199.79	2728.34
199.865	2734.44
199.94	2732.63
200.015	2764.79
200.09	2771.08
200.165	2777.61
200.24	2785.04
200.315	2828.58
200.39	2842.12
200.464	2844.6
200.539	2849.89
200.614	2862.23
200.689	2885.77
200.764	2893.4
200.839	2911.69
200.914	2917.03
200.989	2910.35
201.063	2922.7
201.138	2906.22
201.213	2909.98
201.288	2892.35
201.363	2898.5
201.438	2894.73
201.512	2909.6
201.587	2895.96
201.662	2896.39
201.737	2909.69
201.812	2918.32
201.886	2883.93
201.961	2895.71
202.036	2887.84
202.111	2883.12
202.186	2861.97
202.26	2850.01
202.335	2831.51
202.41	2828.94
202.485	2814.98
202.559	2798.68
202.634	2777.48
202.709	2788.91
202.784	2773.33
202.858	2779.05
202.933	2766.71
203.008	2770.76
203.082	2760.23
203.157	2764.99
203.232	2737.56
203.306	2723.87
203.381	2702.14
203.456	2691.66
203.53	2683.41
203.605	2678.41
203.68	2672.93
203.754	2681.59
203.829	2684.31
203.904	2686.22
203.978	2694.99
204.053	2722.77
204.127	2736.88
204.202	2763.99
204.277	2775.62
204.351	2802.93
204.426	2830.11
204.5	2860.81
204.575	2868.15
204.65	2919.48
204.724	2956.41
204.799	3007.93
204.873	3053.59
204.948	3105.34
205.022	3152.41
205.097	3203.4
205.171	3274.54
205.246	3349.12
205.32	3415.01
205.395	3490.08
205.469	3558.96
205.544	3642.85
205.618	3712.95
205.693	3813.06
205.767	3896.93
205.842	4013.67
205.916	4105.79
205.991	4197.56
206.065	4303.6
206.14	4425.72
206.214	4533.05
206.289	4641.86
206.363	4776.23
206.438	4903.72
206.512	5037.45
206.586	5185.76
206.661	5327.85
206.735	5448.83
206.81	5591.99
206.884	5747.41
206.958	5874.78
207.033	6040.39
207.107	6204.61
207.181	6390.88
207.256	6546.99
207.33	6719.89
207.405	6889.6
207.479	7073.77
207.553	7250.43
207.628	7407.4
207.702	7591.82
207.776	7760.58
207.851	7940.51
207.925	8130.56
207.999	8307.68
208.073	8488
208.148	8678.9
208.222	8849.86
208.296	9065.65
208.371	9264.98
208.445	9466.47
208.519	9683.07
208.593	9882.15
208.668	10069.96
208.742	10264.93
208.816	10458.53
208.89	10673.31
208.965	10875.21
209.039	11081.44
209.113	11296.26
209.187	11517.91
209.261	11710.72
209.336	11930.48
209.41	12142.74
209.484	12338.81
209.558	12559.42
209.632	12773.57
209.707	12984.41
209.781	13208.98
209.855	13421.9
209.929	13645.03
210.003	13848.26
210.077	14048.88
210.151	14294.48
210.226	14520.4
210.3	14739.77
210.374	14956.68
210.448	15154.02
210.522	15348.18
210.596	15546.57
210.67	15743.14
210.744	15971.94
210.818	16189.41
210.892	16392.62
210.966	16571.34
211.041	16766.2
211.115	16939.9
211.189	17144.83
211.263	17327.15
211.337	17507.2
211.411	17691.64
211.485	17847.97
211.559	18037.71
211.633	18201.03
211.707	18335.2
211.781	18510.42
211.855	18637.07
211.929	18783.37
212.003	18922.26
212.077	19093.14
212.151	19253.19
212.225	19409.18
212.299	19552.94
212.373	19694.57
212.447	19843.77
212.52	20024.4
212.594	20170.23
212.668	20320.25
212.742	20438.52
212.816	20576.88
212.89	20706.43
212.964	20842.1
213.038	20985.59
213.112	21132.84
213.186	21283.74
213.26	21395.07
213.333	21475.57
213.407	21608.69
213.481	21740.76
213.555	21868.83
213.629	21980.62
213.703	22087.34
213.777	22209.35
213.85	22308.13
213.924	22459.66
213.998	22564.77
214.072	22677.59
214.146	22782.89
214.219	22898.51
214.293	23010.6
214.367	23104.58
214.441	23217.02
214.515	23309.07
214.588	23388.45
214.662	23441.78
214.736	23527.95
214.81	23632.74
214.883	23741.24
214.957	23824.53
215.031	23896.28
215.105	23962.06
215.178	24031.18
215.252	24111.14
215.326	24173.22
215.4	24236.45
215.473	24260.96
215.547	24320.24
215.621	24377.22
215.694	24455.71
215.768	24504.24
215.842	24548.48
215.915	24613.17
215.989	24656.98
216.063	24700.98
216.136	24757.33
216.21	24821.54
216.284	24888.8
216.357	24949.5
216.431	25001.33
216.504	25066.52
216.578	25152.03
216.652	25224.16
216.725	25283.13
216.799	25345.24
216.873	25397.79
216.946	25449.33
217.02	25498.07
217.093	25550.92
217.167	25579.01
217.24	25607.39
217.314	25651.06
217.387	25694.16
217.461	25740.54
217.535	25795.08
217.608	25841.56
217.682	25881.96
217.755	25932.65
217.829	25950.99
217.902	25986.18
217.976	26012.73
218.049	26034.89
218.123	26050.09
218.196	26087.56
218.27	26113.58
218.343	26140.23
218.417	26171.85
218.49	26197.77
218.563	26237.21
218.637	26266.33
218.71	26315.67
218.784	26349.52
218.857	26386.02
218.931	26422.52
219.004	26449.02
219.077	26485.43
219.151	26512.14
219.224	26544.29
219.298	26566.02
219.371	26618.22
219.444	26630.44
219.518	26670.18
219.591	26702.77
219.665	26757.06
219.738	26785.36
219.811	26799.02
219.885	26826.7
219.958	26854.9
220.031	26871.7
220.105	26894.83
220.178	26909.13
220.251	26921.01
220.325	26948.49
220.398	26971.53
220.471	27001.47
220.544	27027.41
220.618	27033.11
220.691	27048.51
220.764	27040.35
220.838	27057.69
220.911	27058.61
220.984	27094.44
221.057	27107.29
221.131	27121.78
221.204	27097.82
221.277	27121.4
221.35	27156.8
221.424	27148.3
221.497	27155.5
221.57	27168.73
221.643	27175.2
221.716	27189.45
221.79	27186.12
221.863	27187.32
221.936	27185.2
222.009	27179.6
222.082	27177.91
222.155	27166.65
222.229	27175.83
222.302	27196.11
222.375	27189.5
222.448	27187.85
222.521	27182.73
222.594	27166.31
222.667	27143.32
222.74	27137.62
222.814	27118.3
222.887	27104.92
222.96	27107.82
223.033	27099.85
223.106	27102.12
223.179	27097.58
223.252	27085.79
223.325	27074.92
223.398	27051.07
223.471	27028.17
223.544	27015.57
223.617	27005.04
223.69	26996.3
223.763	26973.65
223.837	26962.25
223.91	26954.28
223.983	26918.69
224.056	26881.26
224.129	26861.94
224.202	26841.28
224.275	26824.08
224.348	26788.2
224.42	26752.47
224.493	26702.49
224.566	26667.19
224.639	26638.56
224.712	26602.48
224.785	26566.12
224.858	26534.74
224.931	26508.76
225.004	26484.09
225.077	26453.62
225.15	26399.44
225.223	26369.36
225.296	26355.26
225.369	26307.85
225.442	26266.08
225.514	26245.23
225.587	26221.13
225.66	26203.9
225.733	26194.39
225.806	26165.18
225.879	26147.27
225.952	26115.6
226.025	26116.56
226.097	26103.92
226.17	26070.99
226.243	26029.62
226.316	26008.24
226.389	25983.67
226.461	25957.31
226.534	25925.02
226.607	25886.74
226.68	25867.34
226.753	25838.38
226.825	25797.3
226.898	25779.83
226.971	25750.91
227.044	25716.89
227.117	25688.8
227.189	25655.2
227.262	25625.37
227.335	25594.96
227.407	25562.77
227.48	25530.63
227.553	25495.44
227.626	25456.2
227.698	25428.41
227.771	25402.49
227.844	25358.53
227.916	25333.87
227.989	25290.83
228.062	25260.04
228.134	25257.34
228.207	25233.69
228.28	25207.05
228.352	25183.02
228.425	25148.76
228.498	25129.84
228.57	25094.14
228.643	25073.97
228.716	25034.64
228.788	24995.56
228.861	24966.12
228.934	24937.03
229.006	24904.08
229.079	24871.22
229.151	24830.4
229.224	24782.35
229.296	24752.01
229.369	24750.22
229.442	24732.22
229.514	24698.94
229.587	24673.66
229.659	24603.42
229.732	24572.97
229.804	24540.51
229.877	24513.68
229.949	24499.88
230.022	24479.57
230.094	24448.94
230.167	24418.89
230.239	24383.48
230.312	24347.01
230.384	24326.75
230.457	24306.25
230.529	24282.76
230.602	24248.27
230.674	24225.5
230.747	24206.11
230.819	24184.17
230.892	24115.19
230.964	24074.04
231.037	24046.7
231.109	24019.59
231.181	24009.32
231.254	23961.33
231.326	23914.55
231.399	23875.58
231.471	23821.94
231.544	23761.36
231.616	23739.76
231.688	23698.09
231.761	23663.75
231.833	23629.56
231.905	23573.23
231.978	23524.13
232.05	23477.79
232.122	23437.48
232.195	23396.82
232.267	23372.33
232.339	23332.5
232.412	23309.01
232.484	23270.72
232.556	23230.61
232.629	23213.39
232.701	23180.6
232.773	23140.1
232.846	23098.83
232.918	23059.19
232.99	23024.76
233.062	23005.81
233.135	22964.44
233.207	22917.67
233.279	22883.3
233.351	22843.52
233.424	22794.11
233.496	22753.99
233.568	22743.77
233.64	22696.86
233.713	22665.91
233.785	22626.76
233.857	22598.07
233.929	22551.21
234.001	22524.07
234.074	22496.54
234.146	22433
234.218	22392.79
234.29	22363.67
234.362	22325.59
234.434	22278.88
234.507	22228.7
234.579	22169.21
234.651	22134.07
234.723	22107.74
234.795	22068.6
234.867	22031.44
234.939	22013.22
235.012	21973.01
235.084	21931.46
235.156	21903.84
235.228	21850.19
235.3	21802.85
235.372	21759.76
235.444	21728.48
235.516	21667.55
235.588	21631.35
235.66	21592.98
235.732	21550.9
235.804	21571.92
235.876	21549.51
235.948	21532.2
236.02	21490.61
236.092	21448
236.164	21400.33
236.236	21355.75
236.308	21305.77
236.38	21268.03
236.452	21223.25
236.524	21184.41
236.596	21156.5
236.668	21130.57
236.74	21091.53
236.812	21057.6
236.884	21016.44
236.956	20981.36
237.028	20933.55
237.1	20887.13
237.172	20863.62
237.244	20832.58
237.316	20743.55
237.388	20688.66
237.46	20630.63
237.532	20613.77
237.604	20571.12
237.675	20554.05
237.747	20513.24
237.819	20473.38
237.891	20428.71
237.963	20387.74
238.035	20338.25
238.107	20259.45
238.178	20219.89
238.25	20181.29
238.322	20159.79
238.394	20107.99
238.466	20058.11
238.538	20025.77
238.609	19988.91
238.681	19911.56
238.753	19864.23
238.825	19817.78
238.897	19788.48
238.968	19765.93
239.04	19716.77
239.112	19700.34
239.184	19638.36
239.255	19595.04
239.327	19560.1
239.399	19529.98
239.471	19496.64
239.542	19463.19
239.614	19447.39
239.686	19383
239.758	19345.32
239.829	19299.49
239.901	19275.69
239.973	19234
240.044	19190
240.116	19148.99
240.188	19120.51
240.259	19086.15
240.331	19048.37
240.403	19009.92
240.474	18944.77
240.546	18889.3
240.618	18834.41
240.689	18797.26
240.761	18756.1
240.833	18733.31
240.904	18687.48
240.976	18646.28
241.048	18618.86
241.119	18578.09
241.191	18548.84
241.262	18535.35
241.334	18483.93
241.405	18438.44
241.477	18402.48
241.549	18370.2
241.62	18336.03
241.692	18304.08
241.763	18266.11
241.835	18227.31
241.906	18195.41
241.978	18153.39
242.049	18133.1
242.121	18100.72
242.192	18071.95
242.264	18028.81
242.335	17972
242.407	17936.29
242.478	17889.73
242.55	17850.07
242.621	17802.32
242.693	17756.15
242.764	17703.43
242.836	17663.91
242.907	17636.25
242.979	17607.62
243.05	17570.03
243.122	17526.51
243.193	17493.93
243.264	17437.21
243.336	17398.8
243.407	17358.75
243.479	17338.13
243.55	17294.61
243.622	17259.77
243.693	17220.34
243.764	17199.28
243.836	17158.22
243.907	17123.14
243.978	17090.46
244.05	17052.05
244.121	17000.14
244.192	16977.97
244.264	16927.32
244.335	16893.44
244.407	16832.62
244.478	16789.77
244.549	16753.96
244.62	16711.74
244.692	16673.57
244.763	16649.57
244.834	16607.26
244.906	16563.73
244.977	16530.38
245.048	16511.54
245.119	16466.04
245.191	16420.64
245.262	16361.45
245.333	16335.28
245.405	16299.23
245.476	16265.4
245.547	16234.79
245.618	16208.48
245.689	16176.95
245.761	16154.73
245.832	16116.47
245.903	16094.44
245.974	16065.09
246.045	16026.19
246.117	16008.65
246.188	15962.18
246.259	15918.56
246.33	15884.87
246.401	15848.28
246.473	15797.72
246.544	15760.13
246.615	15744.03
246.686	15706.24
246.757	15687.78
246.828	15643.05
246.899	15621.79
246.97	15568.14
247.042	15522.45
247.113	15501.29
247.184	15482.83
247.255	15432.41
247.326	15405.27
247.397	15373.7
247.468	15343.38
247.539	15313.69
247.61	15267.9
247.681	15252.91
247.752	15237.63
247.823	15200.56
247.894	15173.23
247.965	15138.33
248.037	15105.55
248.108	15052.38
248.179	15017.1
248.25	14980.27
248.321	14963.98
248.392	14923.44
248.463	14924.93
248.534	14894.08
248.605	14869.5
248.675	14832.58
248.746	14815.27
248.817	14796.67
248.888	14771.84
248.959	14728.7
249.03	14714.14
249.101	14685.55
249.172	14643.13
249.243	14585.48
249.314	14566.68
249.385	14545.09
249.456	14522.91
249.527	14488.06
249.598	14468.58
249.669	14445.54
249.739	14430.65
249.81	14407.7
249.881	14364.36
249.952	14331.87
250.023	14310.13
250.094	14266.94
250.165	14229.49
250.235	14202.64
250.306	14168.94
250.377	14122.9
250.448	14100.58
250.519	14040.23
250.59	14024.85
250.66	13995.88
250.731	13988.41
250.802	13963.92
250.873	13935.53
250.944	13916.1
251.014	13885.83
251.085	13885.63
251.156	13865.05
251.227	13839.02
251.297	13826.77
251.368	13817.37
251.439	13799.25
251.51	13781.07
251.58	13748.1
251.651	13720.43
251.722	13707.8
251.792	13657.28
251.863	13628.74
251.934	13620.93
252.005	13627.97
252.075	13602.81
252.146	13597.45
252.217	13585.74
252.287	13563.9
252.358	13536.38
252.429	13522.73
252.499	13497.33
252.57	13468.16
252.641	13448.54
252.711	13434.08
252.782	13393.68
252.852	13382.55
252.923	13359.84
252.994	13338.05
253.064	13328.65
253.135	13291.73
253.205	13260.88
253.276	13262.08
253.347	13263.91
253.417	13222.12
253.488	13196.52
253.558	13175.02
253.629	13144.6
253.699	13125.08
253.77	13110.04
253.841	13093.02
253.911	13073.93
253.982	13048.62
254.052	13039.32
254.123	13022.88
254.193	12996.95
254.264	13010.01
254.334	12977.9
254.405	12942.71
254.475	12911.14
254.546	12882.6
254.616	12882.94
254.687	12863.66
254.757	12848.09
254.827	12821.86
254.898	12819.93
254.968	12798.43
255.039	12766.28
255.109	12750.09
255.18	12718.03
255.25	12684.43
255.321	12666.59
255.391	12629.04
255.461	12623.74
255.532	12575.1
255.602	12548.2
255.673	12502.41
255.743	12461.63
255.813	12416.85
255.884	12404.99
255.954	12391.44
256.024	12389.32
256.095	12370.71
256.165	12338.03
256.235	12322.9
256.306	12300.39
256.376	12283.18
256.446	12268.67
256.517	12258.93
256.587	12252.57
256.657	12234.73
256.728	12212.51
256.798	12187.49
256.868	12166.09
256.938	12135.92
257.009	12121.5
257.079	12111
257.149	12123.63
257.219	12092.25
257.29	12080.2
257.36	12043.32
257.43	12027.61
257.5	11988.57
257.571	11960.32
257.641	11950.44
257.711	11914.72
257.781	11902.72
257.852	11889.61
257.922	11849.17
257.992	11824.25
258.062	11795.23
258.132	11786.65
258.202	11767.37
258.273	11751.03
258.343	11750.65
258.413	11734.36
258.483	11716.52
258.553	11687.02
258.623	11660.37
258.693	11644.71
258.764	11646.59
258.834	11640.03
258.904	11619.64
258.974	11595.64
259.044	11576.41
259.114	11564.55
259.184	11550.38
259.254	11527.59
259.324	11486.43
259.394	11472.26
259.464	11478.23
259.535	11465.37
259.605	11441.31
259.675	11416.88
259.745	11405.36
259.815	11377.02
259.885	11349.99
259.955	11359.43
260.025	11333.89
260.095	11310.47
260.165	11298.03
260.235	11291.14
260.305	11267.05
260.375	11242.71
260.445	11245.21
260.515	11242.66
260.585	11231.33
260.655	11216.3
260.725	11210.51
260.795	11204.35
260.865	11210.03
260.934	11177.16
261.004	11170.18
261.074	11153.6
261.144	11153.45
261.214	11148.58
261.284	11129.21
261.354	11123.33
261.424	11096.39
261.494	11099.14
261.564	11087.28
261.634	11075.57
261.703	11038.95
261.773	11034.08
261.843	11023.33
