Data from 20250703_urea_0.1M_MAYP1162681_02-51-05-197.txt Node
Date: Fri Jul 04 02:51:05 BST 2025
User: adleo
Spectrometer: MAYP116268
Trigger mode: 0
Integration Time (sec): 1.000000E0
Scans to average: 1
Electric dark correction enabled: true
Nonlinearity correction enabled: true
Boxcar width: 10
XAxis mode: Wavelengths
Number of Pixels in Spectrum: 2068
>>>>>Begin Spectral Data<<<<<
179.565	1314.27
179.642	1373.1
179.718	1424.17
179.795	1463.89
179.871	1502.44
179.948	1523
180.024	1545.49
180.101	1573.14
180.177	1590.72
180.254	1616.44
180.33	1641.28
180.407	1702.25
180.483	1806.25
180.56	1904.75
180.636	1996.2
180.712	1980.74
180.789	1993.62
180.865	2004.46
180.942	2013.92
181.018	2025.48
181.095	2038.18
181.171	2044.94
181.248	2049.03
181.324	2061.92
181.4	2069.81
181.477	2079.47
181.553	2093.55
181.63	2117.09
181.706	2132.46
181.782	2138.17
181.859	2137.88
181.935	2141.21
182.011	2137.88
182.088	2154.87
182.164	2173.81
182.24	2190.6
182.317	2201.92
182.393	2200.26
182.469	2220.67
182.546	2232.99
182.622	2239.13
182.698	2235.27
182.775	2245.03
182.851	2259.78
182.927	2252.26
183.003	2248.74
183.08	2241.94
183.156	2251.69
183.232	2249.36
183.308	2235.89
183.385	2247.31
183.461	2266.49
183.537	2269.06
183.613	2284.67
183.69	2274.34
183.766	2261.11
183.842	2265.92
183.918	2271.1
183.995	2287.04
184.071	2286.85
184.147	2279.38
184.223	2265.4
184.299	2282.06
184.375	2272.59
184.452	2276.73
184.528	2331.48
184.604	2341.66
184.68	2352.93
184.756	2359.88
184.832	2364.45
184.908	2368.83
184.985	2366.98
185.061	2349.18
185.137	2358.08
185.213	2343.99
185.289	2342.75
185.365	2336.57
185.441	2333.52
185.517	2347.57
185.593	2341.57
185.669	2341.43
185.745	2354.75
185.822	2373.36
185.898	2360.74
185.974	2373.16
186.05	2365.21
186.126	2329.89
186.202	2324.84
186.278	2322.75
186.354	2315.23
186.43	2319.42
186.506	2318.42
186.582	2319.56
186.658	2324.08
186.734	2301.91
186.81	2305.09
186.886	2313.8
186.962	2327.03
187.038	2325.74
187.114	2318.89
187.19	2325.98
187.266	2312.7
187.341	2313.13
187.417	2304.95
187.493	2306.61
187.569	2307.9
187.645	2302.04
187.721	2288.33
187.797	2295.8
187.873	2301.09
187.949	2293.95
188.025	2286.05
188.101	2290.33
188.176	2295.33
188.252	2292
188.328	2302.51
188.404	2303.65
188.48	2295.75
188.556	2291.23
188.632	2291.75
188.707	2290.99
188.783	2288.61
188.859	2282.9
188.935	2272.48
189.011	2281.85
189.086	2274.19
189.162	2264.63
189.238	2264.72
189.314	2262.2
189.39	2256.01
189.465	2248.83
189.541	2262.91
189.617	2248.45
189.693	2242.36
189.768	2245.6
189.844	2273.12
189.92	2263.93
189.996	2270.6
190.071	2285.21
190.147	2283.88
190.223	2295.97
190.298	2289.3
190.374	2276.64
190.45	2288.58
190.526	2294.63
190.601	2286.68
190.677	2286.01
190.753	2314.78
190.828	2317.16
190.904	2333.1
190.98	2348.24
191.055	2357.28
191.131	2351.67
191.207	2374.22
191.282	2384.83
191.358	2375.27
191.433	2360.6
191.509	2375.01
191.585	2374.92
191.66	2373.82
191.736	2381.44
191.811	2367.02
191.887	2381.73
191.963	2404.53
192.038	2411
192.114	2415.1
192.189	2420.66
192.265	2418.67
192.34	2394.9
192.416	2393.85
192.491	2387.38
192.567	2391.71
192.642	2395.19
192.718	2392.57
192.793	2378.91
192.869	2375.43
192.944	2377.77
193.02	2383.1
193.095	2390
193.171	2393.9
193.246	2391.95
193.322	2388.95
193.397	2392.76
193.473	2378.52
193.548	2359.43
193.624	2367.05
193.699	2365.1
193.775	2382.29
193.85	2384.34
193.925	2395.53
194.001	2393.67
194.076	2386.34
194.152	2374.82
194.227	2366.58
194.302	2358.11
194.378	2360.87
194.453	2357.68
194.529	2372.35
194.604	2356.02
194.679	2347.02
194.755	2328.37
194.83	2343.85
194.905	2342.99
194.981	2350.37
195.056	2344.52
195.131	2352.8
195.207	2351.46
195.282	2342.42
195.357	2321.57
195.433	2338.56
195.508	2325.04
195.583	2334.13
195.659	2347.12
195.734	2357.22
195.809	2357.03
195.884	2366.97
195.96	2370.92
196.035	2385.44
196.11	2379.49
196.185	2393.77
196.261	2398.48
196.336	2431.56
196.411	2416.99
196.486	2421.56
196.561	2416.37
196.637	2425.08
196.712	2442.13
196.787	2443.03
196.862	2455.84
196.937	2467.79
197.013	2470.84
197.088	2483.88
197.163	2504.5
197.238	2526.38
197.313	2519.99
197.388	2534.42
197.464	2564.62
197.539	2574.81
197.614	2569.24
197.689	2581.43
197.764	2598.49
197.839	2616.63
197.914	2611.58
197.989	2633.5
198.065	2647.36
198.14	2696.93
198.215	2722.79
198.29	2734.04
198.365	2749.67
198.44	2761.58
198.515	2791.32
198.59	2813.05
198.665	2838.31
198.74	2848.65
198.815	2851.13
198.89	2880.86
198.965	2914.38
199.04	2912.76
199.115	2930.49
199.19	2976.91
199.265	2979.77
199.34	2992.88
199.415	3032.9
199.49	3053.54
199.565	3065.55
199.64	3091.92
199.715	3091.59
199.79	3100.45
199.865	3107.08
199.94	3108.32
200.015	3144.04
200.09	3147.77
200.165	3154.59
200.24	3163.36
200.315	3208.33
200.39	3221.98
200.464	3229.61
200.539	3231.18
200.614	3250.83
200.689	3277.88
200.764	3285.33
200.839	3303.78
200.914	3306.74
200.989	3290.46
201.063	3306.01
201.138	3287.38
201.213	3287.04
201.288	3266.63
201.363	3273.97
201.438	3275.12
201.512	3286.56
201.587	3267.24
201.662	3271.96
201.737	3285.32
201.812	3295.29
201.886	3257.53
201.961	3268.41
202.036	3255.01
202.111	3251.67
202.186	3218.96
202.26	3198.15
202.335	3174.25
202.41	3169.29
202.485	3155.51
202.559	3139.96
202.634	3113.83
202.709	3125.74
202.784	3110.2
202.858	3113.34
202.933	3095.13
203.008	3095.51
203.082	3083.44
203.157	3085.4
203.232	3046.74
203.306	3026.89
203.381	2994.75
203.456	2977.15
203.53	2962.64
203.605	2948.63
203.68	2933.46
203.754	2938.13
203.829	2931.51
203.904	2923.45
203.978	2927.17
204.053	2944.67
204.127	2947.15
204.202	2959.5
204.277	2954.87
204.351	2963.79
204.426	2972.71
204.5	2984.39
204.575	2964.56
204.65	2997.62
204.724	3016.18
204.799	3048.83
204.873	3069.78
204.948	3099.2
205.022	3117.99
205.097	3140.81
205.171	3188.17
205.246	3233.23
205.32	3266.61
205.395	3309.9
205.469	3339.05
205.544	3388.14
205.618	3413.44
205.693	3469.92
205.767	3508.54
205.842	3583.47
205.916	3630.08
205.991	3673.58
206.065	3731.09
206.14	3807.67
206.214	3861.69
206.289	3915.18
206.363	3995
206.438	4064.28
206.512	4142.46
206.586	4233.87
206.661	4309.37
206.735	4355.89
206.81	4432
206.884	4524.12
206.958	4591.36
207.033	4693.5
207.107	4782.6
207.181	4901.95
207.256	4982.02
207.33	5087.38
207.405	5191.11
207.479	5299.92
207.553	5402.54
207.628	5482.35
207.702	5587.55
207.776	5681.25
207.851	5783.82
207.925	5899.5
207.999	5995.48
208.073	6095.29
208.148	6205.82
208.222	6304.84
208.296	6449.99
208.371	6571.55
208.445	6697.95
208.519	6832.21
208.593	6957.73
208.668	7058.68
208.742	7170.78
208.816	7285.41
208.89	7415.11
208.965	7528.64
209.039	7656.78
209.113	7791.36
209.187	7931.33
209.261	8048.13
209.336	8185.41
209.41	8321.7
209.484	8433.04
209.558	8574.16
209.632	8704.28
209.707	8827.73
209.781	8967.41
209.855	9098.54
209.929	9235.49
210.003	9360.24
210.077	9476.72
210.151	9636.09
210.226	9791.22
210.3	9932.74
210.374	10075.15
210.448	10198.76
210.522	10322.76
210.596	10442.43
210.67	10565.96
210.744	10721.82
210.818	10868.62
210.892	10999.73
210.966	11102.22
211.041	11232.76
211.115	11337.57
211.189	11468.32
211.263	11591.21
211.337	11706.15
211.411	11832.58
211.485	11932.98
211.559	12044.7
211.633	12149.63
211.707	12219.52
211.781	12330.15
211.855	12400.81
211.929	12491.29
212.003	12571.5
212.077	12684.73
212.151	12803.02
212.225	12913.17
212.299	13004.38
212.373	13085.32
212.447	13170.16
212.52	13304.84
212.594	13400.29
212.668	13516.23
212.742	13597.45
212.816	13698.64
212.89	13783.77
212.964	13873.34
213.038	13963.72
213.112	14070.74
213.186	14181.03
213.26	14250.26
213.333	14294.03
213.407	14389.47
213.481	14479.47
213.555	14577.96
213.629	14648.34
213.703	14718.52
213.777	14797
213.85	14868.82
213.924	14996.7
213.998	15084.24
214.072	15162.56
214.146	15237.86
214.219	15314.79
214.293	15393.69
214.367	15461.18
214.441	15553
214.515	15616
214.588	15667.96
214.662	15701.6
214.736	15753.47
214.81	15837.67
214.883	15934.22
214.957	15992.25
215.031	16058.38
215.105	16101.67
215.178	16157.38
215.252	16218.6
215.326	16260.77
215.4	16308.49
215.473	16314.7
215.547	16370.37
215.621	16412.44
215.694	16478.09
215.768	16513.27
215.842	16557.08
215.915	16613.08
215.989	16643.01
216.063	16690.39
216.136	16753.19
216.21	16813.67
216.284	16890.35
216.357	16949.87
216.431	16990.31
216.504	17051.42
216.578	17127.47
216.652	17200.68
216.725	17259.09
216.799	17317.83
216.873	17378.03
216.946	17437.64
217.02	17491.43
217.093	17540.53
217.167	17567.72
217.24	17599.76
217.314	17645.88
217.387	17691.28
217.461	17725.64
217.535	17789.98
217.608	17825.59
217.682	17876.58
217.755	17930.65
217.829	17961.25
217.902	18005.3
217.976	18047.66
218.049	18093.92
218.123	18126.45
218.196	18172.81
218.27	18212.76
218.343	18240.76
218.417	18294.2
218.49	18334.15
218.563	18392.7
218.637	18435.35
218.71	18515.01
218.784	18570.28
218.857	18634.76
218.931	18688.78
219.004	18741.4
219.077	18792.39
219.151	18850.99
219.224	18889.15
219.298	18934.02
219.371	18992.04
219.444	19026.5
219.518	19083.6
219.591	19129.53
219.665	19207.11
219.738	19255.64
219.811	19290.29
219.885	19351.1
219.958	19400.93
220.031	19441.56
220.105	19492.4
220.178	19531.48
220.251	19559.86
220.325	19607.81
220.398	19656.29
220.471	19710.89
220.544	19762.26
220.618	19792.72
220.691	19846.45
220.764	19887.75
220.838	19940.71
220.911	19977.43
220.984	20048.37
221.057	20087.84
221.131	20127.45
221.204	20127.26
221.277	20178.83
221.35	20238.78
221.424	20266.92
221.497	20301.86
221.57	20341.91
221.643	20383.64
221.716	20441.81
221.79	20468.7
221.863	20506.68
221.936	20532.08
222.009	20558.29
222.082	20600.95
222.155	20631.5
222.229	20667.69
222.302	20710.11
222.375	20732.52
222.448	20769.58
222.521	20793.34
222.594	20824.37
222.667	20841.97
222.74	20881.53
222.814	20913.49
222.887	20938.79
222.96	20982.55
223.033	21011.04
223.106	21035.9
223.179	21067.28
223.252	21085.26
223.325	21111.33
223.398	21122.13
223.471	21138.66
223.544	21167.67
223.617	21176.73
223.69	21198.52
223.763	21201.89
223.837	21219.48
223.91	21252.84
223.983	21246.86
224.056	21238.14
224.129	21255.44
224.202	21278.82
224.275	21278.57
224.348	21277.71
224.42	21291.2
224.493	21278.77
224.566	21293.28
224.639	21319.3
224.712	21314.77
224.785	21316.8
224.858	21337.33
224.931	21348.8
225.004	21359.79
225.077	21366.49
225.15	21351.07
225.223	21365.38
225.296	21406.11
225.369	21402.4
225.442	21393.96
225.514	21410.35
225.587	21430.26
225.66	21445.2
225.733	21456.81
225.806	21481.35
225.879	21479.66
225.952	21470.99
226.025	21498.99
226.097	21517.5
226.17	21523.19
226.243	21512.87
226.316	21520.01
226.389	21522.22
226.461	21537.02
226.534	21546.37
226.607	21554.95
226.68	21590.91
226.753	21596.84
226.825	21572.4
226.898	21588.59
226.971	21598.18
227.044	21608.74
227.117	21621.13
227.189	21618.04
227.262	21631.63
227.335	21642.05
227.407	21643.78
227.48	21652.65
227.553	21650.48
227.626	21639.3
227.698	21637.47
227.771	21651.88
227.844	21640.21
227.916	21641.8
227.989	21630.96
228.062	21636.26
228.134	21660.7
228.207	21657.66
228.28	21645.56
228.352	21644.65
228.425	21650.29
228.498	21660.03
228.57	21649.47
228.643	21667.64
228.716	21664.32
228.788	21657.52
228.861	21645.71
228.934	21652.02
229.006	21643.54
229.079	21634.53
229.151	21624.16
229.224	21609.42
229.296	21606.28
229.369	21631.01
229.442	21641.95
229.514	21624.26
229.587	21623.93
229.659	21583.24
229.732	21578.71
229.804	21585.27
229.877	21607.2
229.949	21610.33
230.022	21621.37
230.094	21618.86
230.167	21599.78
230.239	21585.56
230.312	21575.58
230.384	21587.58
230.457	21592.88
230.529	21599.05
230.602	21596.45
230.674	21595.97
230.747	21608.5
230.819	21620.94
230.892	21591.78
230.964	21587.49
231.037	21591.34
231.109	21580.16
231.181	21584.69
231.254	21562.71
231.326	21548.64
231.399	21526.61
231.471	21499.04
231.544	21459.9
231.616	21466.94
231.688	21459.71
231.761	21442.64
231.833	21431.61
231.905	21398.35
231.978	21382.73
232.05	21367.45
232.122	21365.19
232.195	21346.25
232.267	21334.2
232.339	21296.84
232.412	21302.34
232.484	21281.71
232.556	21258.81
232.629	21264.69
232.701	21255.05
232.773	21252.45
232.846	21234.67
232.918	21225.12
232.99	21217.03
233.062	21215.48
233.135	21193.07
233.207	21155.33
233.279	21147.96
233.351	21129.84
233.424	21103.14
233.496	21072.87
233.568	21072.39
233.64	21026.31
233.713	21011.47
233.785	20984.63
233.857	20981.35
233.929	20942.55
234.001	20942.16
234.074	20944.82
234.146	20902.74
234.218	20885.82
234.29	20854.06
234.362	20824.71
234.434	20778.98
234.507	20743.5
234.579	20701.58
234.651	20665.77
234.723	20649.77
234.795	20633.53
234.867	20624.27
234.939	20618.59
235.012	20600.8
235.084	20580.56
235.156	20569.24
235.228	20534.92
235.3	20504.61
235.372	20483.07
235.444	20466.25
235.516	20409.04
235.588	20384.46
235.66	20360.22
235.732	20320.94
235.804	20355.88
235.876	20343.69
235.948	20335.88
236.02	20312.17
236.092	20289.62
236.164	20270.01
236.236	20244.71
236.308	20202.68
236.38	20175.17
236.452	20135.07
236.524	20113.63
236.596	20101.43
236.668	20085.87
236.74	20063.22
236.812	20041.39
236.884	20015.31
236.956	19995.8
237.028	19959.12
237.1	19914.02
237.172	19898.26
237.244	19894.55
237.316	19823.42
237.388	19782.89
237.46	19750.12
237.532	19733.83
237.604	19695.61
237.675	19680.05
237.747	19664.34
237.819	19635.62
237.891	19590.7
237.963	19556.88
238.035	19516.44
238.107	19438.71
238.178	19426.28
238.25	19395.78
238.322	19388.69
238.394	19333.9
238.466	19292.17
238.538	19274.14
238.609	19251.59
238.681	19200.32
238.753	19148.61
238.825	19128.75
238.897	19109.77
238.968	19093.14
239.04	19047.65
239.112	19042.88
239.184	18993
239.255	18944.72
239.327	18924.09
239.399	18906.31
239.471	18884.53
239.542	18861.54
239.614	18852.87
239.686	18785.74
239.758	18759.04
239.829	18710.37
239.901	18692.11
239.973	18655.43
240.044	18621.36
240.116	18589.99
240.188	18553.8
240.259	18517.23
240.331	18458.53
240.403	18430.63
240.474	18383.4
240.546	18351.02
240.618	18305.04
240.689	18275.7
240.761	18251.46
240.833	18236.28
240.904	18193.58
240.976	18163.32
241.048	18130.59
241.119	18104.04
241.191	18073.25
241.262	18057.97
241.334	18021.3
241.405	17994.74
241.477	17958.79
241.549	17926.7
241.62	17891.9
241.692	17868.29
241.763	17859.71
241.835	17824.77
241.906	17782.17
241.978	17728.68
242.049	17707.38
242.121	17675.52
242.192	17655.57
242.264	17607.86
242.335	17545.5
242.407	17510.7
242.478	17464.73
242.55	17430.75
242.621	17385.5
242.693	17357.79
242.764	17318.03
242.836	17286.13
242.907	17256.39
242.979	17225.07
243.05	17186.27
243.122	17163.09
243.193	17128.1
243.264	17057.98
243.336	17034.94
243.407	17011.23
243.479	16998.65
243.55	16971.81
243.622	16953.4
243.693	16914.02
243.764	16892.96
243.836	16855.8
243.907	16825.82
243.978	16791.03
244.05	16764.62
244.121	16712.08
244.192	16681.77
244.264	16627.26
244.335	16591.5
244.407	16537.71
244.478	16512.16
244.549	16477.8
244.62	16422.18
244.692	16392.88
244.763	16382.18
244.834	16341.55
244.906	16302.56
244.977	16272.72
245.048	16249.68
245.119	16198.35
245.191	16151.26
245.262	16096.66
245.333	16075.4
245.405	16040.65
245.476	16018.14
245.547	15982.71
245.618	15967.1
245.689	15936.35
245.761	15912.25
245.832	15881.35
245.903	15860.53
245.974	15835.85
246.045	15813.15
246.117	15804.81
246.188	15758.78
246.259	15708.46
246.33	15681.47
246.401	15645.36
246.473	15600.05
246.544	15558.41
246.615	15534.21
246.686	15508.57
246.757	15492.23
246.828	15450.15
246.899	15436.56
246.97	15392.64
247.042	15358.28
247.113	15338.22
247.184	15329.79
247.255	15298.27
247.326	15268.67
247.397	15232.66
247.468	15201.43
247.539	15170.34
247.61	15126.91
247.681	15113.22
247.752	15105.12
247.823	15062.12
247.894	15042.6
247.965	15003.31
248.037	14970.78
248.108	14925.42
248.179	14890.61
248.25	14868.68
248.321	14847.33
248.392	14803.85
248.463	14788.81
248.534	14756.8
248.605	14729.08
248.675	14690.38
248.746	14667.24
248.817	14651.86
248.888	14624.91
248.959	14579.84
249.03	14542.77
249.101	14512.74
249.172	14470.18
249.243	14412.52
249.314	14402.25
249.385	14363.98
249.456	14350.63
249.527	14316.59
249.598	14293.7
249.669	14272.1
249.739	14247.71
249.81	14226.55
249.881	14187.79
249.952	14163.97
250.023	14133.03
250.094	14087.76
250.165	14052.52
250.235	14019.4
250.306	13982.14
250.377	13950.52
250.448	13926.42
250.519	13896.33
250.59	13894.84
250.66	13868.52
250.731	13862.25
250.802	13831.16
250.873	13812.89
250.944	13786.67
251.014	13754.9
251.085	13758.08
251.156	13731.47
251.227	13719.56
251.297	13715.61
251.368	13704.67
251.439	13694.25
251.51	13684.85
251.58	13654.82
251.651	13624.11
251.722	13615.29
251.792	13575.33
251.863	13545.97
251.934	13538.55
252.005	13540.33
252.075	13508.61
252.146	13489.23
252.217	13478.05
252.287	13462.52
252.358	13438.61
252.429	13432.83
252.499	13400.1
252.57	13377.73
252.641	13370.45
252.711	13343.55
252.782	13295.15
252.852	13290.14
252.923	13264.4
252.994	13239.33
253.064	13231.37
253.135	13199.08
253.205	13166.2
253.276	13163.64
253.347	13165.86
253.417	13127.06
253.488	13093.7
253.558	13060.68
253.629	13047.76
253.699	13028.57
253.77	13015.02
253.841	12989.28
253.911	12970.43
253.982	12958.04
254.052	12947.49
254.123	12926.57
254.193	12904.82
254.264	12923.91
254.334	12887.95
254.405	12849.92
254.475	12818.97
254.546	12794.53
254.616	12788.55
254.687	12774.53
254.757	12756.5
254.827	12722.61
254.898	12710.75
254.968	12696.14
255.039	12669.25
255.109	12654.11
255.18	12622
255.25	12580.11
255.321	12569.8
255.391	12528.49
255.461	12534.08
255.532	12483.03
255.602	12458.69
255.673	12421.67
255.743	12390.62
255.813	12355.53
255.884	12345.89
255.954	12336.97
256.024	12333.89
256.095	12319.09
256.165	12289.39
256.235	12274.02
256.306	12248.33
256.376	12241.67
256.446	12226.15
256.517	12214.1
256.587	12206.39
256.657	12187.06
256.728	12172.6
256.798	12151.78
256.868	12130.62
256.938	12101.55
257.009	12088.82
257.079	12075.33
257.149	12084.58
257.219	12045.54
257.29	12028.38
257.36	11999.07
257.43	11987.84
257.5	11940.32
257.571	11905.85
257.641	11883.01
257.711	11853.89
257.781	11845.02
257.852	11823.04
257.922	11779.14
257.992	11757.16
258.062	11728.48
258.132	11721.83
258.202	11701.2
258.273	11685.92
258.343	11686.93
258.413	11653.96
258.483	11635.55
258.553	11595.35
258.623	11564.7
258.693	11548.17
258.764	11539.11
258.834	11523.88
258.904	11508.45
258.974	11491.68
259.044	11482.09
259.114	11471.58
259.184	11456.02
259.254	11433.94
259.324	11395.14
259.394	11384.2
259.464	11384.49
259.535	11370.66
259.605	11346.8
259.675	11324.97
259.745	11309.94
259.815	11280.63
259.885	11256.25
259.955	11266.08
260.025	11250.13
260.095	11219.91
260.165	11213.02
260.235	11220.25
260.305	11200.68
260.375	11167.77
260.445	11166.23
260.515	11164.44
260.585	11165.12
260.655	11147.33
260.725	11145.36
260.795	11139.96
260.865	11150.32
260.934	11131.33
261.004	11122.61
261.074	11104.44
261.144	11101.36
261.214	11098.9
261.284	11082.03
261.354	11082.85
261.424	11061.12
261.494	11061.84
261.564	11051.24
261.634	11040.97
261.703	11000.78
261.773	10993.6
261.843	10987.19
261.913	10979.82
