Data from 20250703_urea_0.1M_MAYP1162681_12-31-05-280.txt Node
Date: Thu Jul 03 12:31:05 BST 2025
User: adleo
Spectrometer: MAYP116268
Trigger mode: 0
Integration Time (sec): 1.000000E0
Scans to average: 1
Electric dark correction enabled: true
Nonlinearity correction enabled: true
Boxcar width: 10
XAxis mode: Wavelengths
Number of Pixels in Spectrum: 2068
>>>>>Begin Spectral Data<<<<<
179.565	1160.9
179.642	1215.38
179.718	1258.25
179.795	1296.14
179.871	1325.92
179.948	1343.43
180.024	1362.28
180.101	1384.31
180.177	1399.71
180.254	1420.36
180.33	1440.32
180.407	1489.31
180.483	1582.28
180.56	1670.61
180.636	1749.65
180.712	1740.05
180.789	1751.98
180.865	1764.61
180.942	1773.02
181.018	1780.01
181.095	1794.03
181.171	1798.17
181.248	1796.46
181.324	1808.15
181.4	1815.57
181.477	1827.59
181.553	1838.52
181.63	1859.01
181.706	1874.22
181.782	1881.97
181.859	1882.68
181.935	1889.43
182.011	1885.87
182.088	1903.94
182.164	1923.2
182.24	1938.22
182.317	1947.11
182.393	1944.4
182.469	1953.38
182.546	1963.94
182.622	1970.26
182.698	1965.41
182.775	1980.2
182.851	1997.5
182.927	1992.7
183.003	1987.43
183.08	1980.96
183.156	1989.37
183.232	1988.28
183.308	1975.82
183.385	1983.29
183.461	2001.45
183.537	2002.5
183.613	2016.1
183.69	2004.87
183.766	1994.03
183.842	2000.3
183.918	2005.49
183.995	2017.95
184.071	2026.7
184.147	2022.37
184.223	2010.58
184.299	2021.81
184.375	2009.44
184.452	2012.68
184.528	2059.76
184.604	2071.27
184.68	2082.96
184.756	2090.58
184.832	2094.81
184.908	2100.94
184.985	2099.18
185.061	2081.87
185.137	2090.67
185.213	2077.69
185.289	2081.45
185.365	2071.79
185.441	2071.13
185.517	2083.74
185.593	2082.69
185.669	2077.41
185.745	2088.06
185.822	2106.84
185.898	2098.19
185.974	2107.89
186.05	2100.18
186.126	2070.13
186.202	2064.85
186.278	2061.14
186.354	2054.1
186.43	2059.14
186.506	2059.38
186.582	2058.9
186.658	2067.22
186.734	2045.97
186.81	2051.63
186.886	2052.1
186.962	2063.42
187.038	2060.8
187.114	2053.09
187.19	2057.9
187.266	2048.63
187.341	2050.72
187.417	2041.78
187.493	2043.4
187.569	2045.59
187.645	2043.59
187.721	2030.41
187.797	2036.02
187.873	2040.07
187.949	2034.84
188.025	2026.65
188.101	2028.89
188.176	2033.21
188.252	2025.23
188.328	2033.5
188.404	2036.35
188.48	2030.26
188.556	2025.84
188.632	2022.18
188.707	2019.75
188.783	2015.71
188.859	2011.86
188.935	1998.83
189.011	2007.34
189.086	1999.11
189.162	1990.93
189.238	1986.56
189.314	1981.81
189.39	1976.29
189.465	1969.39
189.541	1984.9
189.617	1972.73
189.693	1968.26
189.768	1971.06
189.844	1998.51
189.92	1991.81
189.996	1997.47
190.071	2008.45
190.147	2006.03
190.223	2017.78
190.298	2014.16
190.374	2002.23
190.45	2013.97
190.526	2022.2
190.601	2016.92
190.677	2020.25
190.753	2045.89
190.828	2051.83
190.904	2070.86
190.98	2087.32
191.055	2099.26
191.131	2091.74
191.207	2110.86
191.282	2119.99
191.358	2113.43
191.433	2099.72
191.509	2113.94
191.585	2110.89
191.66	2112.56
191.736	2123.16
191.811	2115.41
191.887	2129.68
191.963	2150.04
192.038	2156.42
192.114	2156.42
192.189	2160.03
192.265	2158.79
192.34	2139.19
192.416	2136.05
192.491	2130.34
192.567	2128.24
192.642	2128.1
192.718	2127.44
192.793	2117.87
192.869	2110.84
192.944	2112.74
193.02	2121.26
193.095	2124.25
193.171	2128.63
193.246	2129.29
193.322	2126.73
193.397	2125.96
193.473	2112.55
193.548	2098.8
193.624	2102.94
193.699	2100.7
193.775	2114.36
193.85	2115.07
193.925	2124.25
194.001	2122.83
194.076	2115.03
194.152	2108.79
194.227	2103.51
194.302	2094.67
194.378	2096.86
194.453	2097.76
194.529	2109.22
194.604	2091.48
194.679	2086.3
194.755	2067.61
194.83	2077.13
194.905	2071.61
194.981	2081.03
195.056	2073.61
195.131	2080.17
195.207	2075.18
195.282	2069.47
195.357	2055.39
195.433	2070.27
195.508	2057.91
195.583	2067.47
195.659	2082.88
195.734	2090.45
195.809	2088.4
195.884	2099.19
195.96	2101.91
196.035	2116.13
196.11	2112.32
196.185	2124.45
196.261	2125.45
196.336	2159.13
196.411	2148.28
196.486	2155.79
196.561	2149.75
196.637	2159.83
196.712	2172.3
196.787	2180.39
196.862	2193.71
196.937	2200.42
197.013	2203.37
197.088	2214.31
197.163	2232.78
197.238	2247.97
197.313	2246.35
197.388	2261.43
197.464	2288.14
197.539	2296.75
197.614	2288.61
197.689	2303.89
197.764	2319.65
197.839	2341.87
197.914	2334.25
197.989	2357.53
198.065	2370.76
198.14	2419.25
198.215	2445.43
198.29	2459.77
198.365	2470.95
198.44	2482.43
198.515	2511.47
198.59	2529.81
198.665	2556.33
198.74	2565.38
198.815	2566.9
198.89	2585.42
198.965	2616.11
199.04	2611.82
199.115	2626.58
199.19	2666.96
199.265	2665.91
199.34	2676.49
199.415	2709.38
199.49	2729.19
199.565	2734.76
199.64	2756.48
199.715	2754.62
199.79	2761.1
199.865	2767.54
199.94	2766.01
200.015	2799.99
200.09	2805.28
200.165	2809.38
200.24	2813
200.315	2855.46
200.39	2867.99
200.464	2876.23
200.539	2876.76
200.614	2893.63
200.689	2915.93
200.764	2924.71
200.839	2944.48
200.914	2950
200.989	2939.23
201.063	2955.38
201.138	2939.81
201.213	2940.33
201.288	2919.84
201.363	2925.27
201.438	2922.8
201.512	2940.76
201.587	2922.35
201.662	2925.4
201.737	2938.94
201.812	2948.67
201.886	2914.6
201.961	2926.57
202.036	2918
202.111	2916.33
202.186	2888.99
202.26	2874.4
202.335	2856.43
202.41	2851.8
202.485	2836.84
202.559	2821.4
202.634	2799.43
202.709	2815
202.784	2802.38
202.858	2810.95
202.933	2796.85
203.008	2800.23
203.082	2786.6
203.157	2791.75
203.232	2760.64
203.306	2747.87
203.381	2727.56
203.456	2715.6
203.53	2706.11
203.605	2700.06
203.68	2690.96
203.754	2701.72
203.829	2706.96
203.904	2705.58
203.978	2719.55
204.053	2745.86
204.127	2759.96
204.202	2785.8
204.277	2796.24
204.351	2821.88
204.426	2847.78
204.5	2876.71
204.575	2880.38
204.65	2931.04
204.724	2971.89
204.799	3024.32
204.873	3073.42
204.948	3123.4
205.022	3168.19
205.097	3221.38
205.171	3295.76
205.246	3369
205.32	3438.76
205.395	3508.05
205.469	3572.29
205.544	3652.75
205.618	3719.92
205.693	3813.96
205.767	3888.55
205.842	4006.4
205.916	4097.81
205.991	4185.99
206.065	4295.14
206.14	4418.69
206.214	4522.23
206.289	4626.79
206.363	4753.21
206.438	4872.32
206.512	5006.72
206.586	5157.03
206.661	5292.64
206.735	5410.08
206.81	5551.08
206.884	5703.77
206.958	5841.89
207.033	6011.84
207.107	6165.68
207.181	6348.46
207.256	6501.36
207.33	6680.06
207.405	6848
207.479	7027.36
207.553	7195.73
207.628	7348.37
207.702	7529.62
207.776	7699.03
207.851	7875.93
207.925	8068.65
207.999	8252.7
208.073	8433.45
208.148	8615.44
208.222	8791.54
208.296	9007.47
208.371	9210.36
208.445	9412.96
208.519	9629.05
208.593	9831.89
208.668	10022.38
208.742	10214.59
208.816	10400.07
208.89	10604.3
208.965	10801.81
209.039	11009.34
209.113	11225.3
209.187	11442.99
209.261	11638.45
209.336	11855.89
209.41	12068.14
209.484	12262.58
209.558	12478.37
209.632	12685.72
209.707	12894.53
209.781	13117.32
209.855	13320.5
209.929	13524.69
210.003	13720.88
210.077	13909.17
210.151	14142.28
210.226	14362.28
210.3	14586.71
210.374	14804.1
210.448	14999.57
210.522	15194.83
210.596	15389.13
210.67	15587
210.744	15813.34
210.818	16022.87
210.892	16228.34
210.966	16414.96
211.041	16619.32
211.115	16795.19
211.189	16993.42
211.263	17179.84
211.337	17348.37
211.411	17542.98
211.485	17711.51
211.559	17900.29
211.633	18062.6
211.707	18205.44
211.781	18382.11
211.855	18506.54
211.929	18666.44
212.003	18808.31
212.077	18982.52
212.151	19148.73
212.225	19314.85
212.299	19460.29
212.373	19606.45
212.447	19749.29
212.52	19920.04
212.594	20066.98
212.668	20215.94
212.742	20345.39
212.816	20479.08
212.89	20608.04
212.964	20738.27
213.038	20882.76
213.112	21025.57
213.186	21185.53
213.26	21302.94
213.333	21391.39
213.407	21526.68
213.481	21649.83
213.555	21793.65
213.629	21892.14
213.703	21999.68
213.777	22115.18
213.85	22211.06
213.924	22356.08
213.998	22469.33
214.072	22574.97
214.146	22668.59
214.219	22784.69
214.293	22893.22
214.367	23001.46
214.441	23128.51
214.515	23224.37
214.588	23307.75
214.662	23373.09
214.736	23454.73
214.81	23550.59
214.883	23647.46
214.957	23732.14
215.031	23809.59
215.105	23865
215.178	23941.39
215.252	24020.15
215.326	24072.43
215.4	24135.76
215.473	24167.88
215.547	24228.71
215.621	24290.65
215.694	24369.14
215.768	24408.36
215.842	24466.39
215.915	24523.85
215.989	24562.83
216.063	24612.33
216.136	24656.86
216.21	24719.67
216.284	24783.65
216.357	24835.42
216.431	24897.9
216.504	24965.31
216.578	25051.06
216.652	25114.5
216.725	25182.59
216.799	25246.34
216.873	25298.65
216.946	25360.17
217.02	25405.09
217.093	25450.26
217.167	25482.79
217.24	25516.53
217.314	25566.33
217.387	25596.74
217.461	25633.32
217.535	25687.76
217.608	25724.2
217.682	25777.1
217.755	25822.71
217.829	25847.72
217.902	25893.72
217.976	25924.9
218.049	25944.55
218.123	25971.83
218.196	26025.12
218.27	26044.33
218.343	26056.84
218.417	26103.85
218.49	26136.01
218.563	26190.08
218.637	26232.37
218.71	26284.52
218.784	26325.41
218.857	26359.93
218.931	26394.2
219.004	26426.26
219.077	26461.9
219.151	26492.36
219.224	26510.13
219.298	26534.71
219.371	26581.98
219.444	26596.61
219.518	26619.02
219.591	26650.88
219.665	26685.7
219.738	26707.73
219.811	26718.11
219.885	26750.32
219.958	26778.47
220.031	26789.82
220.105	26815.32
220.178	26822.8
220.251	26827.68
220.325	26836.28
220.398	26855.35
220.471	26882.98
220.544	26903.26
220.618	26898.43
220.691	26919.73
220.764	26934.84
220.838	26944.4
220.911	26941.6
220.984	26965.65
221.057	26983.52
221.131	26990.67
221.204	26972.85
221.277	26986.13
221.35	27027.57
221.424	27030.85
221.497	27032.3
221.57	27035.06
221.643	27026.89
221.716	27041.29
221.79	27041.67
221.863	27051.72
221.936	27048.97
222.009	27041.87
222.082	27048.77
222.155	27050.9
222.229	27065.39
222.302	27067.32
222.375	27071.67
222.448	27061.77
222.521	27054.43
222.594	27059.59
222.667	27039.31
222.74	27042.74
222.814	27043.32
222.887	27024.72
222.96	27026.46
223.033	27027.19
223.106	27033.71
223.179	27029.26
223.252	27013.66
223.325	26997
223.398	26978.26
223.471	26971.98
223.544	26957.01
223.617	26944.45
223.69	26932.09
223.763	26893.89
223.837	26891.91
223.91	26882.15
223.983	26866.17
224.056	26833.28
224.129	26808.65
224.202	26810.54
224.275	26784.27
224.348	26744.04
224.42	26704.73
224.493	26664.22
224.566	26632.15
224.639	26617.71
224.712	26589.03
224.785	26575.8
224.858	26553.05
224.931	26534.32
225.004	26506.46
225.077	26485.84
225.15	26424.62
225.223	26398.7
225.296	26396.52
225.369	26345.87
225.442	26305.17
225.514	26283.4
225.587	26267.27
225.66	26238.45
225.733	26208.95
225.806	26191.18
225.879	26176.51
225.952	26150.44
226.025	26138.27
226.097	26113.27
226.17	26082.85
226.243	26034.48
226.316	25992
226.389	25955.02
226.461	25923.79
226.534	25887.15
226.607	25864.13
226.68	25865.58
226.753	25833.72
226.825	25788.34
226.898	25774.35
226.971	25754.99
227.044	25724.63
227.117	25704.17
227.189	25673.56
227.262	25641.13
227.335	25602.33
227.407	25543.3
227.48	25512.08
227.553	25482.49
227.626	25452.18
227.698	25411.01
227.771	25378.3
227.844	25347.56
227.916	25329.99
227.989	25282.17
228.062	25251.91
228.134	25222.43
228.207	25188.75
228.28	25155.11
228.352	25122.83
228.425	25090.74
228.498	25060.72
228.57	25010.69
228.643	24981.45
228.716	24951.1
228.788	24923.59
228.861	24892.42
228.934	24887.89
229.006	24858.41
229.079	24820.77
229.151	24771.56
229.224	24721.92
229.296	24714.39
229.369	24699.63
229.442	24677.53
229.514	24645.12
229.587	24621.43
229.659	24573.81
229.732	24540.29
229.804	24517.76
229.877	24503.24
229.949	24476.51
230.022	24464.35
230.094	24436.81
230.167	24398.12
230.239	24354.08
230.312	24315.34
230.384	24306.32
230.457	24262.91
230.529	24241.73
230.602	24210.72
230.674	24196.01
230.747	24185.73
230.819	24148.59
230.892	24083.96
230.964	24046.53
231.037	24022.85
231.109	23989.86
231.181	23969.07
231.254	23926.34
231.326	23896.77
231.399	23850.18
231.471	23804.07
231.544	23739.78
231.616	23725.55
231.688	23698.16
231.761	23656.16
231.833	23614.44
231.905	23548.27
231.978	23520.35
232.05	23467.21
232.122	23430.27
232.195	23382.96
232.267	23356.73
232.339	23320.85
232.412	23302.29
232.484	23253.97
232.556	23210.24
232.629	23198.76
232.701	23169.34
232.773	23131.35
232.846	23076.19
232.918	23042.82
232.99	23019.29
233.062	22986.6
233.135	22949.81
233.207	22895.86
233.279	22877.58
233.351	22853.91
233.424	22819.73
233.496	22778.22
233.568	22762.98
233.64	22711.68
233.713	22679.29
233.785	22636.71
233.857	22602.19
233.929	22541.93
234.001	22528.43
234.074	22506.16
234.146	22441.84
234.218	22402.99
234.29	22368.81
234.362	22331.79
234.434	22284.59
234.507	22232.14
234.579	22187.26
234.651	22139.29
234.723	22112.68
234.795	22081.16
234.867	22042.88
234.939	22015.45
235.012	21976.26
235.084	21948.59
235.156	21917.02
235.228	21864.72
235.3	21814.54
235.372	21778.97
235.444	21773.57
235.516	21716.59
235.588	21683.04
235.66	21648.63
235.732	21599.9
235.804	21616.96
235.876	21591.75
235.948	21555.75
236.02	21513.91
236.092	21460.17
236.164	21416.94
236.236	21366.81
236.308	21315.1
236.38	21269.55
236.452	21223.28
236.524	21179.76
236.596	21144.14
236.668	21109.87
236.74	21072.76
236.812	21040.81
236.884	21005.57
236.956	20953.33
237.028	20907.01
237.1	20845.27
237.172	20823.06
237.244	20793.8
237.316	20711.43
237.388	20655.77
237.46	20616.92
237.532	20595.72
237.604	20562.9
237.675	20545.07
237.747	20522.37
237.819	20476.92
237.891	20440.83
237.963	20388.01
238.035	20342.32
238.107	20263
238.178	20235.62
238.25	20198.13
238.322	20179.58
238.394	20119.43
238.466	20070.81
238.538	20029.8
238.609	20000.74
238.681	19937.61
238.753	19885.03
238.825	19844.64
238.897	19800.84
238.968	19768.21
239.04	19705.08
239.112	19687.64
239.184	19627.64
239.255	19586.05
239.327	19543.74
239.399	19496.13
239.471	19472.04
239.542	19436.04
239.614	19413.68
239.686	19343.51
239.758	19315.42
239.829	19258.84
239.901	19230.22
239.973	19197.55
240.044	19166.22
240.116	19124.54
240.188	19073.36
240.259	19044.54
240.331	19002.09
240.403	18980.16
240.474	18927.35
240.546	18890.09
240.618	18832.46
240.689	18789.04
240.761	18741.04
240.833	18717.58
240.904	18684.04
240.976	18643.03
241.048	18608.23
241.119	18580.38
241.191	18547.61
241.262	18520.91
241.334	18479.81
241.405	18437.93
241.477	18385.4
241.549	18337.55
241.62	18302.61
241.692	18275.29
241.763	18243.24
241.835	18206.81
241.906	18167
241.978	18122.52
242.049	18092.55
242.121	18073.08
242.192	18046.86
242.264	17996.94
242.335	17934.24
242.407	17901.81
242.478	17860.31
242.55	17824.8
242.621	17772.22
242.693	17739.45
242.764	17687.79
242.836	17647.02
242.907	17610.25
242.979	17580.85
243.05	17549.48
243.122	17510.63
243.193	17471.31
243.264	17410.2
243.336	17368.13
243.407	17340.75
243.479	17319.31
243.55	17289.91
243.622	17247.55
243.693	17213.96
243.764	17193.19
243.836	17159.88
243.907	17121.52
243.978	17079.11
244.05	17047.64
244.121	17003.01
244.192	16968.94
244.264	16920.07
244.335	16881.03
244.407	16834.47
244.478	16802.62
244.549	16765.89
244.62	16719.53
244.692	16684.06
244.763	16660.05
244.834	16614.07
244.906	16561.59
244.977	16525.3
245.048	16499.03
245.119	16450.06
245.191	16404.04
245.262	16345.67
245.333	16324.8
245.405	16288.36
245.476	16265.71
245.547	16226.38
245.618	16199.15
245.689	16170.66
245.761	16145.12
245.832	16110.56
245.903	16087.67
245.974	16061.5
246.045	16025.83
246.117	16013.59
246.188	15966.69
246.259	15920.9
246.33	15887.69
246.401	15854.86
246.473	15800.93
246.544	15760.2
246.615	15740.58
246.686	15698.31
246.757	15671.9
246.828	15626.68
246.899	15602.15
246.97	15545.56
247.042	15508.45
247.113	15483.19
247.184	15462.71
247.255	15417.73
247.326	15390.69
247.397	15350.78
247.468	15310.92
247.539	15280.5
247.61	15228.01
247.681	15207.81
247.752	15191.96
247.823	15149.1
247.894	15117
247.965	15083.21
248.037	15046.96
248.108	14990.76
248.179	14963.91
248.25	14937.88
248.321	14911.56
248.392	14870.92
248.463	14871.65
248.534	14842.1
248.605	14818.67
248.675	14790.47
248.746	14779.34
248.817	14757.5
248.888	14742.85
248.959	14703.42
249.03	14684.28
249.101	14657.33
249.172	14624.36
249.243	14574.61
249.314	14574.52
249.385	14554.22
249.456	14539.47
249.527	14506.64
249.598	14500.91
249.669	14473.09
249.739	14453.62
249.81	14434.72
249.881	14391.53
249.952	14353.3
250.023	14326.6
250.094	14280.8
250.165	14247.49
250.235	14207.87
250.306	14173.45
250.377	14130.98
250.448	14104.37
250.519	14050.43
250.59	14034.32
250.66	14007.28
250.731	14005.21
250.802	13976.48
250.873	13948.13
250.944	13917.23
251.014	13887.2
251.085	13878.67
251.156	13855.43
251.227	13840.73
251.297	13831.33
251.368	13819.61
251.439	13810.17
251.51	13795.94
251.58	13765.96
251.651	13729.23
251.722	13718.48
251.792	13671.96
251.863	13639.47
251.934	13640.67
252.005	13646.5
252.075	13624.91
252.146	13605.58
252.217	13582.39
252.287	13561.9
252.358	13533.85
252.429	13529.8
252.499	13506.8
252.57	13480.67
252.641	13470.55
252.711	13444.52
252.782	13403.01
252.852	13394.53
252.923	13365.51
252.994	13334.13
253.064	13323.42
253.135	13293.97
253.205	13266.2
253.276	13265.91
253.347	13259.5
253.417	13217.27
253.488	13185.55
253.558	13154.41
253.629	13133.1
253.699	13111.75
253.77	13094.35
253.841	13076.17
253.911	13055.54
253.982	13028.45
254.052	13013.22
254.123	12985.74
254.193	12964.67
254.264	12975.81
254.334	12942.93
254.405	12915.69
254.475	12891.35
254.546	12865.08
254.616	12853.8
254.687	12835.19
254.757	12815.33
254.827	12795.66
254.898	12781.97
254.968	12757.05
255.039	12738.35
255.109	12725.72
255.18	12695.59
255.25	12659.82
255.321	12643.24
255.391	12609.11
255.461	12613.4
255.532	12565.53
255.602	12550.59
255.673	12513.18
255.743	12483.58
255.813	12442.61
255.884	12423.42
255.954	12405.44
256.024	12406.22
256.095	12385.3
256.165	12351.46
256.235	12337.91
256.306	12306.19
256.376	12292.07
256.446	12285.85
256.517	12268.11
256.587	12262.04
256.657	12244.49
256.728	12224.88
256.798	12204.53
256.868	12180.34
256.938	12147.75
257.009	12137.63
257.079	12117.43
257.149	12117
257.219	12076.89
257.29	12063.59
257.36	12030.57
257.43	12025.17
257.5	11977.6
257.571	11951.57
257.641	11935.47
257.711	11907.71
257.781	11896.91
257.852	11882.55
257.922	11847.36
257.992	11827.84
258.062	11793.91
258.132	11784.8
258.202	11756.36
258.273	11742.38
258.343	11744.16
258.413	11719.63
258.483	11705.17
258.553	11675.14
258.623	11648.49
258.693	11635.43
258.764	11636.34
258.834	11632.54
258.904	11610.56
258.974	11585.69
259.044	11572.96
259.114	11564.77
259.184	11545.69
259.254	11529.15
259.324	11490.6
259.394	11474.07
259.464	11476.23
259.535	11461.49
259.605	11440.95
259.675	11420.67
259.745	11403.17
259.815	11369.53
259.885	11343.17
259.955	11352.47
260.025	11330.54
260.095	11308.71
260.165	11291.99
260.235	11293.38
260.305	11266.78
260.375	11241.14
260.445	11251.5
260.515	11248.9
260.585	11241.43
260.655	11222.59
260.725	11215.5
260.795	11210.44
260.865	11210.39
260.934	11179.41
261.004	11165.72
261.074	11150.35
261.144	11144.27
261.214	11142.06
261.284	11124.61
261.354	11125.24
261.424	11086.78
261.494	11089.72
261.564	11081.62
261.634	11074.68
261.703	11029.28
261.773	11019.12
261.843	11005.67
