Data from 20250703_urea_0.1M_MAYP1162681_02-21-05-350.txt Node
Date: Fri Jul 04 02:21:05 BST 2025
User: adleo
Spectrometer: MAYP116268
Trigger mode: 0
Integration Time (sec): 1.000000E0
Scans to average: 1
Electric dark correction enabled: true
Nonlinearity correction enabled: true
Boxcar width: 10
XAxis mode: Wavelengths
Number of Pixels in Spectrum: 2068
>>>>>Begin Spectral Data<<<<<
179.565	1315.18
179.642	1378.34
179.718	1430.09
179.795	1472.02
179.871	1509.56
179.948	1529.8
180.024	1552.3
180.101	1579.4
180.177	1594.25
180.254	1623.43
180.33	1645.27
180.407	1708.77
180.483	1811.58
180.56	1911.41
180.636	2004.57
180.712	1992.77
180.789	2001.19
180.865	2012.79
180.942	2019.21
181.018	2032.04
181.095	2046.55
181.171	2051.22
181.248	2051.98
181.324	2066.92
181.4	2073.1
181.477	2082.52
181.553	2096.02
181.63	2117.86
181.706	2134.27
181.782	2144.5
181.859	2139.88
181.935	2146.16
182.011	2139.45
182.088	2157.67
182.164	2176.05
182.24	2189.36
182.317	2198.45
182.393	2196.36
182.469	2212.53
182.546	2228.37
182.622	2231.94
182.698	2226.09
182.775	2239.03
182.851	2256.5
182.927	2247.84
183.003	2246.74
183.08	2240.37
183.156	2249.69
183.232	2246.88
183.308	2231.66
183.385	2240.41
183.461	2259.45
183.537	2260.64
183.613	2276.53
183.69	2269.34
183.766	2258.97
183.842	2269.2
183.918	2274.67
183.995	2290.71
184.071	2294.75
184.147	2292.66
184.223	2283.1
184.299	2299.76
184.375	2289.81
184.452	2294.62
184.528	2346.99
184.604	2356.41
184.68	2370.21
184.756	2377.68
184.832	2381.01
184.908	2388
184.985	2384.96
185.061	2366.92
185.137	2380.44
185.213	2368.59
185.289	2369.92
185.365	2363.31
185.441	2358.07
185.517	2374.6
185.593	2370.41
185.669	2365.93
185.745	2376.64
185.822	2392.44
185.898	2382.16
185.974	2390.48
186.05	2378.77
186.126	2343.59
186.202	2335.12
186.278	2331.17
186.354	2322.6
186.43	2330.79
186.506	2329.84
186.582	2332.55
186.658	2342.45
186.734	2319.51
186.81	2322.75
186.886	2321.51
186.962	2334.5
187.038	2332.46
187.114	2320.84
187.19	2329.6
187.266	2322.65
187.341	2320.93
187.417	2316.17
187.493	2314.94
187.569	2319.17
187.645	2316.41
187.721	2302.7
187.797	2311.65
187.873	2317.88
187.949	2311.27
188.025	2304.46
188.101	2305.56
188.176	2311.7
188.252	2304.84
188.328	2312.5
188.404	2313.88
188.48	2314.74
188.556	2306.27
188.632	2305.17
188.707	2306.27
188.783	2302.31
188.859	2295.75
188.935	2285.42
189.011	2294.7
189.086	2290.28
189.162	2281.42
189.238	2278.86
189.314	2279.24
189.39	2273.29
189.465	2261.96
189.541	2279.81
189.617	2265.1
189.693	2261.49
189.768	2260.49
189.844	2286.91
189.92	2277.54
189.996	2286.59
190.071	2295.68
190.147	2297.96
190.223	2310.62
190.298	2304.72
190.374	2289.45
190.45	2302.58
190.526	2313.67
190.601	2305.91
190.677	2305.29
190.753	2333.24
190.828	2337.05
190.904	2351.24
190.98	2368.99
191.055	2381.94
191.131	2373.08
191.207	2396.98
191.282	2407.02
191.358	2401.59
191.433	2384.93
191.509	2399.43
191.585	2394.77
191.66	2395.63
191.736	2402.01
191.811	2392.29
191.887	2408.86
191.963	2435.9
192.038	2441.23
192.114	2440.33
192.189	2441.47
192.265	2437.9
192.34	2417.42
192.416	2413.9
192.491	2409.43
192.567	2410.43
192.642	2415.9
192.718	2412.81
192.793	2396.15
192.869	2392.15
192.944	2394.19
193.02	2403.24
193.095	2408.57
193.171	2413.71
193.246	2412.57
193.322	2410.38
193.397	2409.91
193.473	2393.76
193.548	2373.53
193.624	2377.76
193.699	2374.67
193.775	2392.29
193.85	2392.67
193.925	2403.86
194.001	2404.38
194.076	2397.72
194.152	2387.34
194.227	2377.01
194.302	2367.44
194.378	2372.68
194.453	2368.78
194.529	2383.25
194.604	2369.3
194.679	2362.92
194.755	2342.7
194.83	2356.03
194.905	2353.18
194.981	2362.7
195.056	2355.89
195.131	2363.6
195.207	2362.37
195.282	2356.04
195.357	2337.28
195.433	2356.27
195.508	2338.7
195.583	2345.6
195.659	2360.79
195.734	2369.65
195.809	2369.65
195.884	2383.35
195.96	2383.06
196.035	2401.87
196.11	2394.96
196.185	2407.81
196.261	2412.29
196.336	2447.52
196.411	2434.61
196.486	2440.04
196.561	2431.85
196.637	2440.37
196.712	2455.94
196.787	2460.32
196.862	2473.7
196.937	2485.79
197.013	2493.13
197.088	2505.88
197.163	2530.22
197.238	2548.81
197.313	2548
197.388	2563.48
197.464	2597.45
197.539	2608.02
197.614	2598.97
197.689	2614.31
197.764	2631.6
197.839	2651.32
197.914	2643.32
197.989	2668.85
198.065	2684.72
198.14	2739.49
198.215	2767.78
198.29	2783.32
198.365	2794.43
198.44	2807.15
198.515	2835.22
198.59	2851.52
198.665	2878.11
198.74	2889.41
198.815	2889.98
198.89	2914.09
198.965	2947.09
199.04	2938.65
199.115	2958.57
199.19	3005.28
199.265	3006.57
199.34	3016.96
199.415	3056.13
199.49	3080.05
199.565	3088.06
199.64	3111.09
199.715	3106.51
199.79	3118.29
199.865	3123.87
199.94	3125.59
200.015	3160.17
200.09	3166.28
200.165	3169.95
200.24	3178.34
200.315	3222.13
200.39	3238.92
200.464	3247.88
200.539	3246.45
200.614	3264.77
200.689	3290.58
200.764	3299.46
200.839	3318.15
200.914	3322.3
200.989	3309.74
201.063	3323.34
201.138	3305.18
201.213	3311.24
201.288	3293.3
201.363	3294.78
201.438	3295.25
201.512	3315.48
201.587	3295.05
201.662	3301.16
201.737	3316.33
201.812	3327.5
201.886	3291.16
201.961	3300.47
202.036	3285.54
202.111	3283.77
202.186	3254.6
202.26	3233.74
202.335	3209.55
202.41	3206.69
202.485	3191.53
202.559	3171.16
202.634	3147.22
202.709	3162.38
202.784	3142.96
202.858	3145.3
202.933	3128.46
203.008	3125.94
203.082	3105.43
203.157	3108.86
203.232	3068.01
203.306	3049.93
203.381	3019.45
203.456	2998.99
203.53	2982.48
203.605	2969.94
203.68	2952.63
203.754	2956.92
203.829	2951.34
203.904	2938.8
203.978	2934.13
204.053	2949.53
204.127	2952.77
204.202	2965.07
204.277	2959.88
204.351	2967.89
204.426	2979.15
204.5	2991.07
204.575	2976.24
204.65	3007.58
204.724	3023.61
204.799	3055.4
204.873	3081.12
204.948	3109.6
205.022	3128.72
205.097	3153.97
205.171	3199.43
205.246	3245.11
205.32	3280.11
205.395	3320.39
205.469	3355.64
205.544	3405.82
205.618	3433.46
205.693	3492.1
205.767	3530.58
205.842	3604.76
205.916	3655.28
205.991	3698.75
206.065	3764.11
206.14	3837.35
206.214	3892.33
206.289	3948.54
206.363	4028.74
206.438	4094.35
206.512	4170
206.586	4260.12
206.661	4340.61
206.735	4398.66
206.81	4478.5
206.884	4576.35
206.958	4641.13
207.033	4742.43
207.107	4839.47
207.181	4964.91
207.256	5046.87
207.33	5154.16
207.405	5258.53
207.479	5367.4
207.553	5473.83
207.628	5549.93
207.702	5662.58
207.776	5761.31
207.851	5868.69
207.925	5993.74
207.999	6099.82
208.073	6202.51
208.148	6316.4
208.222	6409.63
208.296	6553.29
208.371	6680.29
208.445	6803.4
208.519	6951.16
208.593	7076.69
208.668	7182.41
208.742	7295.88
208.816	7410.24
208.89	7544.13
208.965	7654.3
209.039	7781.74
209.113	7914.27
209.187	8059.75
209.261	8165.93
209.336	8303.12
209.41	8440.48
209.484	8554.64
209.558	8696.75
209.632	8832.12
209.707	8957.02
209.781	9100.99
209.855	9232.67
209.929	9369.88
210.003	9492.52
210.077	9602.6
210.151	9774.03
210.226	9929.17
210.3	10077.98
210.374	10223.68
210.448	10344.16
210.522	10473.95
210.596	10601.29
210.67	10722.79
210.744	10880.69
210.818	11033.95
210.892	11168.49
210.966	11276.53
211.041	11404.38
211.115	11511.75
211.189	11649.49
211.263	11785.5
211.337	11898.52
211.411	12020.56
211.485	12123.95
211.559	12243
211.633	12362.39
211.707	12427.18
211.781	12542.73
211.855	12615.76
211.929	12718.96
212.003	12804.18
212.077	12919.1
212.151	13035.13
212.225	13150.78
212.299	13242.95
212.373	13335.84
212.447	13439.77
212.52	13581.16
212.594	13686.3
212.668	13803.53
212.742	13879.99
212.816	13966.28
212.89	14057
212.964	14153.99
213.038	14251.03
213.112	14360.16
213.186	14464.53
213.26	14531.68
213.333	14567.69
213.407	14661.16
213.481	14745.37
213.555	14845.3
213.629	14921.22
213.703	14992.94
213.777	15077.11
213.85	15142.04
213.924	15257.29
213.998	15332.77
214.072	15398.22
214.146	15464.93
214.219	15534.63
214.293	15614.21
214.367	15693.94
214.441	15788.31
214.515	15858.49
214.588	15911.32
214.662	15948.91
214.736	15995.67
214.81	16083.97
214.883	16168.51
214.957	16225.44
215.031	16285.4
215.105	16334.03
215.178	16388.44
215.252	16449.22
215.326	16498.19
215.4	16549.61
215.473	16566
215.547	16612.41
215.621	16660.66
215.694	16730.64
215.768	16772.52
215.842	16818.54
215.915	16864.76
215.989	16892.43
216.063	16927.7
216.136	16982.31
216.21	17044.82
216.284	17115.23
216.357	17172.05
216.431	17226.12
216.504	17288.77
216.578	17369.93
216.652	17431.81
216.725	17481.26
216.799	17540.1
216.873	17588.82
216.946	17642.65
217.02	17687.96
217.093	17734.27
217.167	17766.89
217.24	17803.09
217.314	17845.35
217.387	17893.54
217.461	17941.4
217.535	18002.02
217.608	18051.75
217.682	18102.79
217.755	18154.93
217.829	18203.55
217.902	18260.47
217.976	18310.01
218.049	18343.21
218.123	18375.59
218.196	18425.33
218.27	18475.4
218.343	18507.59
218.417	18565.37
218.49	18606.09
218.563	18674.13
218.637	18725.41
218.71	18795.23
218.784	18845.54
218.857	18915.8
218.931	18969.25
219.004	19020.38
219.077	19076.37
219.151	19124.42
219.224	19164.46
219.298	19212.7
219.371	19265.32
219.444	19291.49
219.518	19337.13
219.591	19385.85
219.665	19451.92
219.738	19497.99
219.811	19529.07
219.885	19580.97
219.958	19627.52
220.031	19669.3
220.105	19709.98
220.178	19756.19
220.251	19784.33
220.325	19832.62
220.398	19865.63
220.471	19916.23
220.544	19965.39
220.618	19995.17
220.691	20038.64
220.764	20081.43
220.838	20131.12
220.911	20166.54
220.984	20226.3
221.057	20275.69
221.131	20323.74
221.204	20339.31
221.277	20403.21
221.35	20470.39
221.424	20504.37
221.497	20545.96
221.57	20585.57
221.643	20633.28
221.716	20676.03
221.79	20707.41
221.863	20735.84
221.936	20773.63
222.009	20791.94
222.082	20826.35
222.155	20852.52
222.229	20898.06
222.302	20935.03
222.375	20952.53
222.448	20982.79
222.521	21009.3
222.594	21034.6
222.667	21050.46
222.74	21093.16
222.814	21103.86
222.887	21129.17
222.96	21164.78
223.033	21188.26
223.106	21228.4
223.179	21266
223.252	21282.72
223.325	21312.85
223.398	21340.03
223.471	21349.57
223.544	21378.25
223.617	21387.36
223.69	21421.82
223.763	21425.97
223.837	21442.16
223.91	21468
223.983	21481.54
224.056	21484.96
224.129	21504.58
224.202	21538.51
224.275	21538.03
224.348	21537.64
224.42	21532.53
224.493	21527.47
224.566	21539.72
224.639	21565.6
224.712	21563.48
224.785	21577.6
224.858	21581.41
224.931	21583.96
225.004	21597.27
225.077	21608.98
225.15	21604.69
225.223	21599.97
225.296	21635.01
225.369	21633.52
225.442	21631.97
225.514	21636.41
225.587	21654.97
225.66	21663.3
225.733	21665.91
225.806	21675.69
225.879	21687.65
225.952	21690.01
226.025	21721.77
226.097	21737.87
226.17	21730.26
226.243	21705.19
226.316	21713.63
226.389	21721.34
226.461	21734.26
226.534	21736.52
226.607	21739.22
226.68	21768.34
226.753	21785.69
226.825	21765.3
226.898	21786.51
226.971	21800.2
227.044	21812.68
227.117	21812.58
227.189	21817.89
227.262	21830.76
227.335	21844.54
227.407	21843.19
227.48	21854.33
227.553	21842.66
227.626	21835.38
227.698	21831.29
227.771	21842.08
227.844	21829.84
227.916	21833.55
227.989	21810.99
228.062	21812.68
228.134	21836.64
228.207	21825.55
228.28	21807.23
228.352	21801.16
228.425	21797.45
228.498	21799.76
228.57	21777.35
228.643	21788.58
228.716	21778.94
228.788	21762.89
228.861	21739.56
228.934	21754.21
229.006	21743.46
229.079	21742.59
229.151	21722.59
229.224	21698.59
229.296	21703.89
229.369	21728.52
229.442	21736.72
229.514	21729.82
229.587	21735.7
229.659	21697.34
229.732	21691.36
229.804	21696.61
229.877	21716.42
229.949	21725.73
230.022	21736.28
230.094	21730.64
230.167	21721.68
230.239	21703.8
230.312	21702.64
230.384	21726.16
230.457	21726.65
230.529	21723.85
230.602	21713.63
230.674	21719.66
230.747	21735.9
230.819	21735.08
230.892	21686.73
230.964	21675.89
231.037	21674.88
231.109	21661.86
231.181	21671.5
231.254	21652.61
231.326	21645.86
231.399	21626.92
231.471	21607.34
231.544	21565.22
231.616	21575.92
231.688	21564.54
231.761	21546.85
231.833	21526.51
231.905	21489.73
231.978	21468.33
232.05	21453.25
232.122	21443.13
232.195	21422.35
232.267	21417.05
232.339	21399.6
232.412	21410.16
232.484	21392.27
232.556	21368.08
232.629	21386.78
232.701	21381.62
232.773	21374.3
232.846	21349.24
232.918	21342.87
232.99	21320.41
233.062	21325.09
233.135	21303.64
233.207	21273.47
233.279	21279.2
233.351	21275.97
233.424	21250.82
233.496	21214.19
233.568	21218.04
233.64	21183.05
233.713	21168.64
233.785	21145.12
233.857	21124.25
233.929	21080.59
234.001	21079.43
234.074	21087.53
234.146	21033.88
234.218	21007.47
234.29	20980.77
234.362	20958.84
234.434	20909.58
234.507	20872.91
234.579	20818.01
234.651	20784.23
234.723	20769.77
234.795	20740.81
234.867	20707.21
234.939	20705.33
235.012	20696.47
235.084	20674.83
235.156	20659.98
235.228	20617.09
235.3	20586.1
235.372	20559.79
235.444	20557.48
235.516	20498.15
235.588	20464.32
235.66	20438.87
235.732	20398.29
235.804	20437.28
235.876	20417.33
235.948	20414.73
236.02	20397.52
236.092	20379.69
236.164	20359.93
236.236	20335.4
236.308	20303.02
236.38	20279.21
236.452	20235.84
236.524	20207.41
236.596	20198.92
236.668	20186.3
236.74	20166.93
236.812	20143.41
236.884	20128.71
236.956	20106.3
237.028	20072.95
237.1	20030.5
237.172	20015.27
237.244	20004.14
237.316	19935.75
237.388	19895.61
237.46	19858.98
237.532	19836.38
237.604	19798.55
237.675	19786.45
237.747	19758.94
237.819	19728.29
237.891	19695.86
237.963	19654.22
238.035	19615.57
238.107	19541.69
238.178	19520.59
238.25	19485.65
238.322	19477.12
238.394	19413.94
238.466	19369.99
238.538	19347.1
238.609	19325.76
238.681	19270.87
238.753	19226.72
238.825	19185.72
238.897	19158.3
238.968	19136.95
239.04	19107.99
239.112	19099.74
239.184	19049.15
239.255	19014.35
239.327	18982.11
239.399	18955.08
239.471	18942.98
239.542	18928.43
239.614	18911.76
239.686	18842.89
239.758	18825.64
239.829	18781.31
239.901	18781.55
239.973	18751.04
240.044	18727.77
240.116	18693.79
240.188	18662.33
240.259	18633.17
240.331	18599.39
240.403	18576.07
240.474	18527.06
240.546	18471.44
240.618	18421.09
240.689	18386.97
240.761	18354.2
240.833	18335.84
240.904	18287.12
240.976	18247.74
241.048	18201.24
241.119	18176.47
241.191	18153.53
241.262	18138.06
241.334	18102.16
241.405	18058.07
241.477	18009.63
241.549	17977.25
241.62	17947.23
241.692	17919.76
241.763	17901.74
241.835	17861.25
241.906	17822.65
241.978	17772.15
242.049	17757.4
242.121	17731.76
242.192	17706.41
242.264	17656.34
242.335	17610.85
242.407	17593.02
242.478	17549.26
242.55	17525.45
242.621	17478.8
242.693	17446.95
242.764	17404.44
242.836	17361.07
242.907	17336.78
242.979	17314.51
243.05	17277.98
243.122	17246.46
243.193	17215.77
243.264	17150.7
243.336	17110.65
243.407	17091.76
243.479	17079.18
243.55	17048.92
243.622	17018.27
243.693	16983.86
243.764	16965.54
243.836	16914.69
243.907	16870.5
243.978	16838.31
244.05	16810.06
244.121	16754.16
244.192	16729.43
244.264	16675.36
244.335	16642.82
244.407	16590.72
244.478	16566.34
244.549	16533.32
244.62	16486.19
244.692	16451.68
244.763	16431.39
244.834	16396.15
244.906	16348.97
244.977	16322.61
245.048	16301.35
245.119	16258.75
245.191	16221.1
245.262	16170.11
245.333	16155.51
245.405	16128.37
245.476	16102.92
245.547	16066.92
245.618	16048.02
245.689	16016.36
245.761	15984.79
245.832	15952.64
245.903	15929.55
245.974	15899.23
246.045	15852.58
246.117	15834.89
246.188	15783.75
246.259	15737.28
246.33	15705.08
246.401	15672.26
246.473	15616.06
246.544	15573.54
246.615	15559.08
246.686	15521.05
246.757	15501.82
246.828	15456.66
246.899	15440.46
246.97	15387.68
247.042	15343.72
247.113	15328.44
247.184	15314.75
247.255	15280.62
247.326	15252.47
247.397	15213.09
247.468	15178.29
247.539	15155.11
247.61	15116.59
247.681	15106.08
247.752	15091.53
247.823	15060.48
247.894	15040.29
247.965	15003.89
248.037	14969.86
248.108	14915.58
248.179	14884.35
248.25	14853.21
248.321	14830.65
248.392	14782.25
248.463	14781.05
248.534	14758.2
248.605	14733.28
248.675	14697.56
248.746	14675.34
248.817	14643.42
248.888	14623.56
248.959	14579.12
249.03	14560.51
249.101	14528.75
249.172	14491.19
249.243	14440.77
249.314	14427.76
249.385	14391.65
249.456	14381.09
249.527	14348.51
249.598	14334.48
249.669	14308.16
249.739	14290.32
249.81	14274.51
249.881	14240.19
249.952	14217.39
250.023	14187.06
250.094	14136.88
250.165	14095.57
250.235	14067.03
250.306	14045.24
250.377	14007.35
250.448	13985.52
250.519	13934.9
250.59	13932.73
250.66	13903.47
250.731	13899.47
250.802	13869.82
250.873	13850.59
250.944	13824.31
251.014	13793.32
251.085	13794.76
251.156	13774.52
251.227	13759.72
251.297	13743.71
251.368	13731.47
251.439	13710.55
251.51	13698.35
251.58	13664.37
251.651	13640.5
251.722	13635.2
251.792	13595.14
251.863	13572.44
251.934	13566.02
252.005	13585.79
252.075	13548.19
252.146	13537.24
252.217	13526.54
252.287	13513.82
252.358	13491.64
252.429	13484.89
252.499	13456.69
252.57	13429.5
252.641	13413.64
252.711	13380.62
252.782	13340.95
252.852	13332.46
252.923	13309.66
252.994	13292.79
253.064	13286.09
253.135	13255.24
253.205	13217.54
253.276	13215.22
253.347	13205.73
253.417	13169.77
253.488	13125.13
253.558	13106.28
253.629	13076.44
253.699	13049.88
253.77	13029.1
253.841	13001.53
253.911	12981.62
253.982	12966.62
254.052	12953.56
254.123	12939.05
254.193	12921.5
254.264	12940.3
254.334	12911.81
254.405	12876.24
254.475	12835.22
254.546	12810.97
254.616	12804.36
254.687	12792.84
254.757	12782.48
254.827	12763.73
254.898	12745.41
254.968	12721.93
255.039	12688.43
255.109	12683.18
255.18	12659.22
255.25	12617.09
255.321	12605.62
255.391	12569.94
255.461	12572.4
255.532	12524.58
255.602	12487.03
255.673	12439.79
255.743	12410.97
255.813	12364.59
255.884	12359.29
255.954	12350.37
256.024	12357.8
256.095	12336.25
256.165	12300.29
256.235	12279.47
256.306	12240.08
256.376	12236.71
256.446	12235.07
256.517	12220.76
256.587	12202.68
256.657	12183.06
256.728	12170.05
256.798	12150.28
256.868	12125.6
256.938	12091.86
257.009	12081.26
257.079	12073.74
257.149	12097.26
257.219	12053.25
257.29	12046.65
257.36	12002.16
257.43	11992.86
257.5	11946.53
257.571	11916.94
257.641	11905.71
257.711	11873.46
257.781	11874.52
257.852	11856.4
257.922	11819.48
257.992	11803.72
258.062	11782.03
258.132	11772.63
258.202	11753.68
258.273	11732.52
258.343	11735.8
258.413	11711.37
258.483	11693.29
258.553	11665.43
258.623	11626.82
258.693	11616.99
258.764	11615.59
258.834	11618.25
258.904	11598.82
258.974	11568.02
259.044	11548.94
259.114	11532.17
259.184	11514.09
259.254	11486.28
259.324	11448.26
259.394	11435.97
259.464	11439.68
259.535	11419.19
259.605	11393.46
259.675	11367.39
259.745	11359.53
259.815	11328.97
259.885	11304.11
259.955	11321.46
260.025	11292.3
260.095	11276.69
260.165	11258.47
260.235	11252.06
260.305	11222.86
260.375	11195.53
260.445	11208.11
260.515	11213.89
260.585	11215.29
260.655	11200.06
260.725	11195.34
260.795	11186.37
260.865	11186.85
260.934	11158.95
261.004	11153.84
261.074	11136.59
261.144	11136.54
261.214	11125.79
261.284	11106.66
261.354	11106.71
261.424	11073.26
261.494	11084.68
261.564	11070.32
261.634	11064.15
261.703	11023.33
261.773	11023.09
261.843	11015.53
