Data from 20250703_urea_0.1M_MAYP1162681_07-21-04-893.txt Node
Date: Fri Jul 04 07:21:04 BST 2025
User: adleo
Spectrometer: MAYP116268
Trigger mode: 0
Integration Time (sec): 1.000000E0
Scans to average: 1
Electric dark correction enabled: true
Nonlinearity correction enabled: true
Boxcar width: 10
XAxis mode: Wavelengths
Number of Pixels in Spectrum: 2068
>>>>>Begin Spectral Data<<<<<
179.565	1259.7
179.642	1317.19
179.718	1360.54
179.795	1400.76
179.871	1434.22
179.948	1454.82
180.024	1478.11
180.101	1498.04
180.177	1510.51
180.254	1534.26
180.33	1556.37
180.407	1611.73
180.483	1711.64
180.56	1807.33
180.636	1893.07
180.712	1878.19
180.789	1888.12
180.865	1899.77
180.942	1905.75
181.018	1914.45
181.095	1924.73
181.171	1927.48
181.248	1929.62
181.324	1945.65
181.4	1952.5
181.477	1963.63
181.553	1975.56
181.63	1997.63
181.706	2016.56
181.782	2026.35
181.859	2024.64
181.935	2028.3
182.011	2025.4
182.088	2041.24
182.164	2058.22
182.24	2074.39
182.317	2084.28
182.393	2082.85
182.469	2098.69
182.546	2114.67
182.622	2119.62
182.698	2116.43
182.775	2129.32
182.851	2140.59
182.927	2132.08
183.003	2124.52
183.08	2118
183.156	2124.28
183.232	2119.71
183.308	2108.63
183.385	2116.81
183.461	2135.03
183.537	2137.6
183.613	2154.25
183.69	2146.68
183.766	2136.69
183.842	2144.44
183.918	2149.2
183.995	2163.9
184.071	2165.33
184.147	2158.19
184.223	2151.39
184.299	2164.76
184.375	2155.2
184.452	2163.82
184.528	2215.3
184.604	2228.43
184.68	2239.13
184.756	2248.55
184.832	2253.64
184.908	2257.4
184.985	2258.64
185.061	2243.94
185.137	2256.21
185.213	2240.13
185.289	2239.94
185.365	2231.14
185.441	2228.19
185.517	2239.62
185.593	2233.72
185.669	2231.53
185.745	2244.9
185.822	2255.41
185.898	2244.89
185.974	2252.98
186.05	2243.93
186.126	2207.34
186.202	2200.16
186.278	2197.54
186.354	2188.5
186.43	2194.21
186.506	2195.26
186.582	2192.36
186.658	2200.4
186.734	2178.51
186.81	2182.03
186.886	2185.08
186.962	2199.06
187.038	2197.68
187.114	2191.73
187.19	2199.3
187.266	2190.17
187.341	2189.74
187.417	2184.79
187.493	2185.46
187.569	2190.07
187.645	2185.12
187.721	2175.85
187.797	2181.36
187.873	2186.5
187.949	2181.51
188.025	2175.08
188.101	2176.32
188.176	2182.41
188.252	2175.65
188.328	2183.31
188.404	2182.5
188.48	2178.41
188.556	2171.46
188.632	2168.46
188.707	2168.75
188.783	2167.61
188.859	2163.71
188.935	2154.1
189.011	2162.42
189.086	2157.05
189.162	2145.77
189.238	2144.11
189.314	2141.68
189.39	2138.68
189.465	2132.21
189.541	2149.91
189.617	2133.6
189.693	2127.94
189.768	2132.17
189.844	2157.35
189.92	2147.51
189.996	2157.21
190.071	2167.58
190.147	2164.16
190.223	2173.53
190.298	2166.25
190.374	2152.08
190.45	2163.25
190.526	2172.34
190.601	2165.87
190.677	2164.68
190.753	2193.29
190.828	2196.76
190.904	2210.61
190.98	2227.07
191.055	2236.78
191.131	2225.69
191.207	2245.01
191.282	2257.61
191.358	2248.57
191.433	2231.58
191.509	2243.47
191.585	2241.8
191.66	2241.47
191.736	2250.51
191.811	2241.99
191.887	2259.22
191.963	2283.87
192.038	2289.96
192.114	2287.2
192.189	2293.58
192.265	2291.91
192.34	2270.25
192.416	2266.54
192.491	2266.73
192.567	2269.92
192.642	2272.11
192.718	2272.44
192.793	2261.78
192.869	2254.17
192.944	2256.36
193.02	2266.35
193.095	2272.78
193.171	2276.44
193.246	2278.54
193.322	2277.3
193.397	2276.77
193.473	2260.26
193.548	2240.74
193.624	2245.46
193.699	2247.17
193.775	2259.59
193.85	2261.59
193.925	2271.73
194.001	2271.25
194.076	2260.16
194.152	2249.22
194.227	2239.79
194.302	2228.9
194.378	2232.04
194.453	2231.42
194.529	2240.84
194.604	2225.76
194.679	2219.34
194.755	2201.4
194.83	2213.78
194.905	2210.83
194.981	2221.02
195.056	2213.07
195.131	2218.4
195.207	2217.59
195.282	2208.12
195.357	2188.75
195.433	2203.55
195.508	2188.42
195.583	2197.88
195.659	2213.97
195.734	2219.54
195.809	2219.78
195.884	2230.15
195.96	2232.62
196.035	2247.85
196.11	2244.75
196.185	2259.41
196.261	2261.12
196.336	2295.44
196.411	2280.06
196.486	2285.44
196.561	2280.63
196.637	2291.47
196.712	2310.76
196.787	2312.33
196.862	2323.51
196.937	2336.31
197.013	2341.26
197.088	2353.54
197.163	2376.3
197.238	2392.4
197.313	2391.02
197.388	2408.87
197.464	2439.3
197.539	2449.63
197.614	2443.87
197.689	2457.82
197.764	2474.06
197.839	2497.58
197.914	2489.48
197.989	2512.29
198.065	2525.76
198.14	2574.27
198.215	2601.89
198.29	2611.09
198.365	2625.9
198.44	2640.61
198.515	2669.2
198.59	2687.16
198.665	2716.07
198.74	2723.17
198.815	2722.7
198.89	2747.18
198.965	2776.02
199.04	2772.58
199.115	2790.64
199.19	2833.86
199.265	2840.05
199.34	2849.73
199.415	2883.77
199.49	2907.26
199.565	2915.12
199.64	2941.38
199.715	2939.76
199.79	2945.91
199.865	2954.78
199.94	2953.68
200.015	2982.67
200.09	2988.05
200.165	2996.02
200.24	3002.45
200.315	3046.64
200.39	3062.23
200.464	3070.86
200.539	3072.06
200.614	3091.65
200.689	3110.87
200.764	3119.17
200.839	3134.18
200.914	3137.57
200.989	3125.07
201.063	3142.91
201.138	3128.99
201.213	3130.71
201.288	3111.59
201.363	3119.12
201.438	3121.32
201.512	3137.38
201.587	3122.83
201.662	3126.27
201.737	3139.72
201.812	3146.4
201.886	3113.89
201.961	3125.1
202.036	3113.47
202.111	3109.84
202.186	3076.58
202.26	3062.18
202.335	3038.47
202.41	3034.61
202.485	3020.31
202.559	3003.72
202.634	2976.44
202.709	2984.02
202.784	2965.76
202.858	2968
202.933	2951.22
203.008	2947.12
203.082	2929.82
203.157	2930.91
203.232	2891.37
203.306	2869.95
203.381	2843.02
203.456	2822.62
203.53	2805.82
203.605	2791.87
203.68	2777.37
203.754	2783.18
203.829	2776.6
203.904	2765.36
203.978	2763.26
204.053	2778.08
204.127	2776.66
204.202	2785.43
204.277	2782.33
204.351	2789.14
204.426	2796.82
204.5	2801.54
204.575	2782.1
204.65	2811.04
204.724	2826.82
204.799	2856.07
204.873	2877.82
204.948	2899.98
205.022	2912.47
205.097	2931.79
205.171	2974.32
205.246	3010.19
205.32	3038.88
205.395	3071.51
205.469	3099.4
205.544	3139.24
205.618	3159.28
205.693	3211.38
205.767	3239.53
205.842	3305.15
205.916	3341.37
205.991	3377.88
206.065	3433.49
206.14	3498.94
206.214	3547.81
206.289	3593.39
206.363	3659.14
206.438	3715.33
206.512	3784.23
206.586	3866.06
206.661	3936.73
206.735	3976.04
206.81	4038.64
206.884	4120.51
206.958	4173.19
207.033	4259.24
207.107	4338.28
207.181	4443.36
207.256	4508.38
207.33	4603.26
207.405	4694.98
207.479	4795.59
207.553	4890.18
207.628	4956.81
207.702	5050.66
207.776	5125.96
207.851	5214.21
207.925	5318.45
207.999	5406.92
208.073	5487.44
208.148	5577.96
208.222	5655.5
208.296	5780.86
208.371	5892.16
208.445	5991.37
208.519	6116.8
208.593	6219.24
208.668	6308.66
208.742	6400.91
208.816	6499.87
208.89	6609.93
208.965	6702.66
209.039	6806.55
209.113	6913.05
209.187	7024.89
209.261	7114.9
209.336	7235.51
209.41	7352.93
209.484	7448.93
209.558	7559.78
209.632	7671.35
209.707	7786.13
209.781	7906.35
209.855	8021.02
209.929	8137.75
210.003	8240.49
210.077	8334.54
210.151	8482.15
210.226	8619.16
210.3	8748.75
210.374	8871.36
210.448	8972.88
210.522	9077.63
210.596	9186.87
210.67	9298.9
210.744	9447.1
210.818	9577.72
210.892	9690.45
210.966	9773.28
211.041	9888.44
211.115	9993.72
211.189	10123.67
211.263	10229.84
211.337	10322.76
211.411	10424.61
211.485	10506.61
211.559	10615.64
211.633	10709.14
211.707	10768.27
211.781	10860.65
211.855	10920.55
211.929	11005.02
212.003	11075.7
212.077	11171.41
212.151	11259.75
212.225	11357.34
212.299	11435.62
212.373	11518.46
212.447	11605.94
212.52	11734.05
212.594	11817.38
212.668	11907.56
212.742	11966.27
212.816	12039.78
212.89	12113.52
212.964	12192.96
213.038	12280.11
213.112	12376.37
213.186	12472.78
213.26	12540.02
213.333	12579.55
213.407	12655.52
213.481	12728.88
213.555	12817.19
213.629	12882.32
213.703	12949.71
213.777	13019.22
213.85	13072.01
213.924	13179.99
213.998	13251.52
214.072	13307.64
214.146	13368.33
214.219	13438.95
214.293	13512.03
214.367	13588.34
214.441	13676.95
214.515	13744.43
214.588	13786.81
214.662	13811.34
214.736	13861.19
214.81	13926.46
214.883	13994.29
214.957	14054.02
215.031	14115.48
215.105	14160.6
215.178	14215.75
215.252	14271.62
215.326	14309.03
215.4	14351.83
215.473	14354
215.547	14392.18
215.621	14443.47
215.694	14503.77
215.768	14538.87
215.842	14579.89
215.915	14619.08
215.989	14652.34
216.063	14694.76
216.136	14750.72
216.21	14813.29
216.284	14887.57
216.357	14945.61
216.431	14997.96
216.504	15055.56
216.578	15130.56
216.652	15188.46
216.725	15233.48
216.799	15295.56
216.873	15347.24
216.946	15408.55
217.02	15455.55
217.093	15502.3
217.167	15526.69
217.24	15558.41
217.314	15605.45
217.387	15642.66
217.461	15686.43
217.535	15743.16
217.608	15774.3
217.682	15833.01
217.755	15888.63
217.829	15920.87
217.902	15962.81
217.976	16013.46
218.049	16052.02
218.123	16082.29
218.196	16141.33
218.27	16183.6
218.343	16222.83
218.417	16280.14
218.49	16326.41
218.563	16393.41
218.637	16449.94
218.71	16517.08
218.784	16578.87
218.857	16635.16
218.931	16696.51
219.004	16745.77
219.077	16803.07
219.151	16859.66
219.224	16896.67
219.298	16942.6
219.371	16995.95
219.444	17036.58
219.518	17084.15
219.591	17139.52
219.665	17206.99
219.738	17250.8
219.811	17300.05
219.885	17356.25
219.958	17411.43
220.031	17461.98
220.105	17513.11
220.178	17554.37
220.251	17598.51
220.325	17649.45
220.398	17698.46
220.471	17749.3
220.544	17803.33
220.618	17835.66
220.691	17888.34
220.764	17942.17
220.838	17988.62
220.911	18032.09
220.984	18100.38
221.057	18155.89
221.131	18194.45
221.204	18212.08
221.277	18276.8
221.35	18342.1
221.424	18380.65
221.497	18414.87
221.57	18446.43
221.643	18496.5
221.716	18562.28
221.79	18586.76
221.863	18614.57
221.936	18650.57
222.009	18681.79
222.082	18721.31
222.155	18753.55
222.229	18803.18
222.302	18839.04
222.375	18880.1
222.448	18925.92
222.521	18958.21
222.594	18981.44
222.667	19014.69
222.74	19059.99
222.814	19086.3
222.887	19114.78
222.96	19150.83
223.033	19193.67
223.106	19234.39
223.179	19263.11
223.252	19286.05
223.325	19325.13
223.398	19363.1
223.471	19388.98
223.544	19432.54
223.617	19464.54
223.69	19503.38
223.763	19516.63
223.837	19547.04
223.91	19577.64
223.983	19584.05
224.056	19601.4
224.129	19636.24
224.202	19668.19
224.275	19689.73
224.348	19698.36
224.42	19706.12
224.493	19715.66
224.566	19726.89
224.639	19751.27
224.712	19757.49
224.785	19765.1
224.858	19785.92
224.931	19801.97
225.004	19817.73
225.077	19825.44
225.15	19819.08
225.223	19834.69
225.296	19880.91
225.369	19874.74
225.442	19877.82
225.514	19887.99
225.587	19900.62
225.66	19907.94
225.733	19934.01
225.806	19951.99
225.879	19966.4
225.952	19976.57
226.025	19995.94
226.097	20027.22
226.17	20036.18
226.243	20045.91
226.316	20053.53
226.389	20072.13
226.461	20092.66
226.534	20114.15
226.607	20129.04
226.68	20163.84
226.753	20182.34
226.825	20166.01
226.898	20205.67
226.971	20223.64
227.044	20239.74
227.117	20258.2
227.189	20282.87
227.262	20290.49
227.335	20301.09
227.407	20306.15
227.48	20328.56
227.553	20346.05
227.626	20344.41
227.698	20363.64
227.771	20379.35
227.844	20397.81
227.916	20404.32
227.989	20384.89
228.062	20390.24
228.134	20415.88
228.207	20413.18
228.28	20407.21
228.352	20414.39
228.425	20416.75
228.498	20429.38
228.57	20434.1
228.643	20449.09
228.716	20451.01
228.788	20455.5
228.861	20448.85
228.934	20466.24
229.006	20461.76
229.079	20468.8
229.151	20464.8
229.224	20438.97
229.296	20449.81
229.369	20475.79
229.442	20492.56
229.514	20499.5
229.587	20512.75
229.659	20500.51
229.732	20515.35
229.804	20523.55
229.877	20542.29
229.949	20549.33
230.022	20564.41
230.094	20563.16
230.167	20561.04
230.239	20545.62
230.312	20539.84
230.384	20567.74
230.457	20569.62
230.529	20586.68
230.602	20583.16
230.674	20595.6
230.747	20623.79
230.819	20628.99
230.892	20589.62
230.964	20587.55
231.037	20587.64
231.109	20577.67
231.181	20578.53
231.254	20559.69
231.326	20554.82
231.399	20550.1
231.471	20535.02
231.544	20508.27
231.616	20516.99
231.688	20519.98
231.761	20515.11
231.833	20503.26
231.905	20472.7
231.978	20466.29
232.05	20452.36
232.122	20442.97
232.195	20423.83
232.267	20422.05
232.339	20404.46
232.412	20408.75
232.484	20391.98
232.556	20383.69
232.629	20395.69
232.701	20393.23
232.773	20381.81
232.846	20364.85
232.918	20348.89
232.99	20343.4
233.062	20346.49
233.135	20336.17
233.207	20302.34
233.279	20303.74
233.351	20298.15
233.424	20278.05
233.496	20254.87
233.568	20259.88
233.64	20232.46
233.713	20215.4
233.785	20195.93
233.857	20188.85
233.929	20161.57
234.001	20157.81
234.074	20156.51
234.146	20116.95
234.218	20100.66
234.29	20089.82
234.362	20075.17
234.434	20043.36
234.507	20007.22
234.579	19966.4
234.651	19945.29
234.723	19933.05
234.795	19915.41
234.867	19885.39
234.939	19888.09
235.012	19881.2
235.084	19862.4
235.156	19857.1
235.228	19839.13
235.3	19806.84
235.372	19780.96
235.444	19775.66
235.516	19740
235.588	19726.99
235.66	19706.07
235.732	19676.34
235.804	19713.88
235.876	19700.92
235.948	19705.01
236.02	19697.45
236.092	19678.12
236.164	19657.06
236.236	19628.87
236.308	19593.74
236.38	19580.25
236.452	19547.67
236.524	19516.15
236.596	19509.02
236.668	19483.24
236.74	19445.07
236.812	19435.73
236.884	19420.64
236.956	19399.68
237.028	19360.55
237.1	19316.74
237.172	19315.97
237.244	19308.55
237.316	19241.47
237.388	19214.58
237.46	19172.08
237.532	19158.34
237.604	19128.18
237.675	19110.88
237.747	19099.84
237.819	19070.06
237.891	19043.27
237.963	19009.15
238.035	18982.55
238.107	18909.49
238.178	18896.62
238.25	18876.24
238.322	18864.77
238.394	18815.28
238.466	18778.22
238.538	18751.72
238.609	18733.02
238.681	18674.81
238.753	18633.36
238.825	18605.56
238.897	18571.82
238.968	18559.58
239.04	18516.5
239.112	18517.66
239.184	18481.81
239.255	18447.25
239.327	18424.07
239.399	18401.42
239.471	18381.28
239.542	18353.43
239.614	18340.85
239.686	18288.37
239.758	18271.84
239.829	18227.27
239.901	18216.81
239.973	18186.3
240.044	18169.87
240.116	18137.53
240.188	18105.58
240.259	18072.86
240.331	18035.13
240.403	18006.84
240.474	17961.69
240.546	17918.6
240.618	17858.75
240.689	17822.89
240.761	17790.56
240.833	17775.42
240.904	17737.5
240.976	17704.39
241.048	17681.64
241.119	17657.16
241.191	17631.72
241.262	17615.67
241.334	17574.51
241.405	17530.95
241.477	17493.02
241.549	17457.65
241.62	17427.72
241.692	17410.47
241.763	17389.31
241.835	17354.27
241.906	17325.65
241.978	17283.19
242.049	17271.57
242.121	17258.66
242.192	17236.34
242.264	17188.82
242.335	17132.53
242.407	17109.11
242.478	17067.71
242.55	17027.37
242.621	16985.54
242.693	16949.83
242.764	16906.41
242.836	16871.51
242.907	16847.95
242.979	16821.34
243.05	16795.22
243.122	16770.59
243.193	16736.52
243.264	16680.13
243.336	16646.3
243.407	16621.96
243.479	16611.5
243.55	16578.15
243.622	16549.81
243.693	16511.73
243.764	16501.03
243.836	16470.72
243.907	16434.23
243.978	16405.84
244.05	16385.41
244.121	16330.99
244.192	16314.75
244.264	16264.67
244.335	16237.54
244.407	16186.3
244.478	16158.64
244.549	16125.14
244.62	16080.94
244.692	16044.17
244.763	16026.19
244.834	15988.06
244.906	15949.21
244.977	15914.08
245.048	15897.79
245.119	15845.63
245.191	15814.93
245.262	15762.59
245.333	15751.98
245.405	15719.79
245.476	15691.06
245.547	15659.2
245.618	15646.28
245.689	15608.15
245.761	15582.99
245.832	15551.23
245.903	15533.88
245.974	15511.41
246.045	15474.73
246.117	15457.96
246.188	15414.58
246.259	15367.53
246.33	15337.07
246.401	15305.59
246.473	15260.14
246.544	15216.13
246.615	15205.77
246.686	15173.66
246.757	15156.02
246.828	15103.43
246.899	15088.06
246.97	15043.13
247.042	15001.14
247.113	14977.91
247.184	14966.54
247.255	14932.79
247.326	14905.8
247.397	14873.89
247.468	14840.05
247.539	14816.86
247.61	14774.68
247.681	14766.2
247.752	14753.72
247.823	14720.12
247.894	14691.92
247.965	14656.15
248.037	14619.32
248.108	14568.9
248.179	14526.57
248.25	14501.27
248.321	14482.08
248.392	14443.9
248.463	14441.4
248.534	14409
248.605	14381.67
248.675	14344.94
248.746	14321.95
248.817	14297.5
248.888	14270.12
248.959	14221.34
249.03	14196.47
249.101	14172.31
249.172	14132.54
249.243	14087.09
249.314	14079.23
249.385	14051.46
249.456	14024.9
249.527	14003.4
249.598	13979.54
249.669	13956.98
249.739	13927.19
249.81	13903.37
249.881	13860.76
249.952	13828.65
250.023	13804.26
250.094	13761.69
250.165	13726.07
250.235	13696.52
250.306	13673.04
250.377	13636.12
250.448	13618.67
250.519	13569.74
250.59	13561.06
250.66	13529.68
250.731	13524.61
250.802	13493.38
250.873	13469.8
250.944	13453.75
251.014	13423.09
251.085	13431.24
251.156	13411.18
251.227	13395.61
251.297	13390.46
251.368	13379.85
251.439	13366.16
251.51	13360.28
251.58	13330.39
251.651	13301.37
251.722	13289.9
251.792	13252.01
251.863	13227.42
251.934	13216.33
252.005	13224.72
252.075	13195.56
252.146	13178.83
252.217	13157.52
252.287	13139.3
252.358	13118.52
252.429	13114.47
252.499	13086.32
252.57	13061.4
252.641	13052.82
252.711	13029.24
252.782	12982.77
252.852	12977.76
252.923	12952.79
252.994	12932.4
253.064	12927.24
253.135	12895.57
253.205	12870.89
253.276	12861.68
253.347	12856.43
253.417	12826.01
253.488	12796.51
253.558	12764.55
253.629	12749.22
253.699	12736.78
253.77	12727.67
253.841	12697.16
253.911	12676.76
253.982	12653.82
254.052	12634.25
254.123	12610.19
254.193	12593.9
254.264	12616.94
254.334	12580.16
254.405	12546.76
254.475	12500.24
254.546	12478.74
254.616	12479.27
254.687	12461.58
254.757	12444.56
254.827	12421.96
254.898	12411.54
254.968	12388.45
255.039	12363.73
255.109	12350.52
255.18	12315.28
255.25	12265.63
255.321	12250.06
255.391	12211.74
255.461	12220.61
255.532	12176.65
255.602	12147.05
255.673	12100.15
255.743	12060.72
255.813	12024.19
255.884	12016.18
255.954	12007.12
256.024	12005.29
256.095	11981.96
256.165	11945.38
256.235	11931.93
256.306	11906.58
256.376	11893.56
256.446	11885.75
256.517	11875.2
256.587	11858.08
256.657	11845.84
256.728	11834.76
256.798	11821.26
256.868	11799.19
256.938	11771.95
257.009	11764.43
257.079	11756.91
257.149	11761.64
257.219	11717.53
257.29	11709.39
257.36	11667.6
257.43	11662.35
257.5	11617.33
257.571	11589.09
257.641	11583.5
257.711	11549.33
257.781	11535.49
257.852	11524.55
257.922	11484.31
257.992	11460.74
258.062	11441.17
258.132	11430.23
258.202	11405.99
258.273	11384.3
258.343	11383.43
258.413	11349.55
258.483	11330.9
258.553	11297.55
258.623	11274.51
258.693	11271.38
258.764	11265.89
258.834	11267.77
258.904	11247.28
258.974	11215.09
259.044	11203.04
259.114	11189.41
259.184	11182.08
259.254	11167.77
259.324	11125.89
259.394	11121.6
259.464	11125.4
259.535	11108.83
259.605	11077.31
259.675	11054.9
259.745	11044.44
259.815	11016.78
259.885	10995.24
259.955	11011.77
260.025	10992.79
260.095	10978.52
260.165	10965.37
260.235	10961.03
260.305	10936.84
260.375	10914.72
260.445	10931.2
260.515	10924.74
260.585	10923.15
260.655	10907.49
260.725	10898.38
260.795	10888.55
260.865	10887.4
260.934	10856.27
261.004	10854.34
261.074	10845.38
261.144	10842.2
261.214	10839.11
261.284	10826.54
261.354	10829.14
261.424	10795.26
261.494	10793.86
261.564	10773.77
261.634	10764.85
261.703	10728.71
261.773	10718.84
261.843	10710.6
261.913	10691.37
