Data from 20250703_urea_0.1M_MAYP1162681_01-01-05-724.txt Node
Date: Fri Jul 04 01:01:05 BST 2025
User: adleo
Spectrometer: MAYP116268
Trigger mode: 0
Integration Time (sec): 1.000000E0
Scans to average: 1
Electric dark correction enabled: true
Nonlinearity correction enabled: true
Boxcar width: 10
XAxis mode: Wavelengths
Number of Pixels in Spectrum: 2068
>>>>>Begin Spectral Data<<<<<
179.565	1337.28
179.642	1401.64
179.718	1453.94
179.795	1498.56
179.871	1536.96
179.948	1558.33
180.024	1580.76
180.101	1604.92
180.177	1620.71
180.254	1645.2
180.33	1672.12
180.407	1735.37
180.483	1843.89
180.56	1945.2
180.636	2038.36
180.712	2022.04
180.789	2034.74
180.865	2048.1
180.942	2057.04
181.018	2068.12
181.095	2082.96
181.171	2088.62
181.248	2086.1
181.324	2102.52
181.4	2109.32
181.477	2119.27
181.553	2134.48
181.63	2155.56
181.706	2172.16
181.782	2180.91
181.859	2180.2
181.935	2183.48
182.011	2179.96
182.088	2196.05
182.164	2215.66
182.24	2230.98
182.317	2245.86
182.393	2243.11
182.469	2259.9
182.546	2274.03
182.622	2278.46
182.698	2272.99
182.775	2281.98
182.851	2302.2
182.927	2291.97
183.003	2288.12
183.08	2283.46
183.156	2291.74
183.232	2290.97
183.308	2280.93
183.385	2291.5
183.461	2310.68
183.537	2312.48
183.613	2328.38
183.69	2316.96
183.766	2306.24
183.842	2314.15
183.918	2318.38
183.995	2333.51
184.071	2338.75
184.147	2331.99
184.223	2321.38
184.299	2336.05
184.375	2327.29
184.452	2334.53
184.528	2389.28
184.604	2403.61
184.68	2413.98
184.756	2421.74
184.832	2426.69
184.908	2430.07
184.985	2428.69
185.061	2412.41
185.137	2422.36
185.213	2407.42
185.289	2409.66
185.365	2402.52
185.441	2396.76
185.517	2411.42
185.593	2408.57
185.669	2402.81
185.745	2418.56
185.822	2435.12
185.898	2423.7
185.974	2433.55
186.05	2421.26
186.126	2383.08
186.202	2374.08
186.278	2370.75
186.354	2363.08
186.43	2370.56
186.506	2368.47
186.582	2366.85
186.658	2374.89
186.734	2352.28
186.81	2357.47
186.886	2359.23
186.962	2373.13
187.038	2374.22
187.114	2367.46
187.19	2374.84
187.266	2365.85
187.341	2363.85
187.417	2357.37
187.493	2357.23
187.569	2360.13
187.645	2353.42
187.721	2340.81
187.797	2347.95
187.873	2355.47
187.949	2348.28
188.025	2340.76
188.101	2344.85
188.176	2351.23
188.252	2349.42
188.328	2358.41
188.404	2359.5
188.48	2358.65
188.556	2349.75
188.632	2347.51
188.707	2347.75
188.783	2344.03
188.859	2340.8
188.935	2327.56
189.011	2337.42
189.086	2332.52
189.162	2322.85
189.238	2319.57
189.314	2314.48
189.39	2308.53
189.465	2298.01
189.541	2313.81
189.617	2298.11
189.693	2291.3
189.768	2294.97
189.844	2320.5
189.92	2312.36
189.996	2322.36
190.071	2332.5
190.147	2335.07
190.223	2345.4
190.298	2337.92
190.374	2325.69
190.45	2337.26
190.526	2348.39
190.601	2339.59
190.677	2341.78
190.753	2374.07
190.828	2381.59
190.904	2401.91
190.98	2417.72
191.055	2428.29
191.131	2419.72
191.207	2442.95
191.282	2455.56
191.358	2444.51
191.433	2427.08
191.509	2442.97
191.585	2438.02
191.66	2440.26
191.736	2444.78
191.811	2434.78
191.887	2452.6
191.963	2479.07
192.038	2482.59
192.114	2485.36
192.189	2491.21
192.265	2488.07
192.34	2463.96
192.416	2460.39
192.491	2457.82
192.567	2458.54
192.642	2463.06
192.718	2463.49
192.793	2447.4
192.869	2442.69
192.944	2447.3
193.02	2455.16
193.095	2458.06
193.171	2461.78
193.246	2459.92
193.322	2460.06
193.397	2462.06
193.473	2446.15
193.548	2422.15
193.624	2429.63
193.699	2425.39
193.775	2443.06
193.85	2444.97
193.925	2454.97
194.001	2454.54
194.076	2444.49
194.152	2435.21
194.227	2425.92
194.302	2415.88
194.378	2421.26
194.453	2416.79
194.529	2430.36
194.604	2413.12
194.679	2404.32
194.755	2385.37
194.83	2398.09
194.905	2395.43
194.981	2403.95
195.056	2397.9
195.131	2408.09
195.207	2404.8
195.282	2398.33
195.357	2376.71
195.433	2393.61
195.508	2377.23
195.583	2386.42
195.659	2400.94
195.734	2408.03
195.809	2408.41
195.884	2419.17
195.96	2417.98
196.035	2437.83
196.11	2431.4
196.185	2443.73
196.261	2450.16
196.336	2484.34
196.411	2468.77
196.486	2472.91
196.561	2466.86
196.637	2473.19
196.712	2491.96
196.787	2495.53
196.862	2511.1
196.937	2522.15
197.013	2528.39
197.088	2540.15
197.163	2564.73
197.238	2585.65
197.313	2585.56
197.388	2600.94
197.464	2633.2
197.539	2645.01
197.614	2637.72
197.689	2653.49
197.764	2671.55
197.839	2690.79
197.914	2681.31
197.989	2707.08
198.065	2724.61
198.14	2779.82
198.215	2807.12
198.29	2815.27
198.365	2833.34
198.44	2844.01
198.515	2873.37
198.59	2890.05
198.665	2921.8
198.74	2932.14
198.815	2934.34
198.89	2959.41
198.965	2989.73
199.04	2985.44
199.115	3002.84
199.19	3048.55
199.265	3051.22
199.34	3063.19
199.415	3101.69
199.49	3128.86
199.565	3139.02
199.64	3163.34
199.715	3160.67
199.79	3170.25
199.865	3178.03
199.94	3175.5
200.015	3208.18
200.09	3213.04
200.165	3218.62
200.24	3221.91
200.315	3263.26
200.39	3275.96
200.464	3283.59
200.539	3286.88
200.614	3304.29
200.689	3333.21
200.764	3340.32
200.839	3359.3
200.914	3367.17
200.989	3357.14
201.063	3373.56
201.138	3350.25
201.213	3352.11
201.288	3332.83
201.363	3340.13
201.438	3339.32
201.512	3355.82
201.587	3337.93
201.662	3342.51
201.737	3360.36
201.812	3372.48
201.886	3338.38
201.961	3351.13
202.036	3339.25
202.111	3336.53
202.186	3306.63
202.26	3287.45
202.335	3263.3
202.41	3259.34
202.485	3241.36
202.559	3223.09
202.634	3193.99
202.709	3212.01
202.784	3192.41
202.858	3195.51
202.933	3178
203.008	3177.81
203.082	3157.06
203.157	3158.92
203.232	3121.26
203.306	3101.07
203.381	3073.93
203.456	3054.42
203.53	3036.09
203.605	3020.12
203.68	3004.48
203.754	3002.67
203.829	3000.81
203.904	2991.84
203.978	2991.32
204.053	3008.73
204.127	3007.82
204.202	3021.75
204.277	3018.36
204.351	3025.18
204.426	3029.66
204.5	3040.78
204.575	3024.76
204.65	3063.35
204.724	3082.44
204.799	3112.09
204.873	3137.25
204.948	3167.69
205.022	3187.05
205.097	3215.65
205.171	3269.51
205.246	3317.44
205.32	3359.42
205.395	3398.81
205.469	3430.48
205.544	3482.44
205.618	3513.91
205.693	3578.53
205.767	3618.07
205.842	3698.86
205.916	3752.87
205.991	3804.65
206.065	3872.84
206.14	3955.37
206.214	4012.61
206.289	4073.25
206.363	4164.32
206.438	4237.27
206.512	4319.46
206.586	4418.17
206.661	4500.7
206.735	4553.17
206.81	4628.52
206.884	4731.27
206.958	4799.76
207.033	4915.26
207.107	5012.14
207.181	5136.19
207.256	5221.09
207.33	5340.01
207.405	5445.28
207.479	5563.53
207.553	5674.64
207.628	5759.25
207.702	5873.09
207.776	5973.39
207.851	6084.98
207.925	6207.06
207.999	6313.99
208.073	6418.16
208.148	6532.92
208.222	6636.46
208.296	6791.62
208.371	6932.06
208.445	7055.82
208.519	7205.75
208.593	7327.33
208.668	7445.39
208.742	7569.75
208.816	7695.07
208.89	7829.63
208.965	7946.04
209.039	8082.27
209.113	8223.45
209.187	8372.59
209.261	8488.86
209.336	8634.46
209.41	8777.01
209.484	8900.68
209.558	9045.13
209.632	9186.51
209.707	9323.87
209.781	9470.14
209.855	9603.39
209.929	9746.06
210.003	9874.4
210.077	9994.81
210.151	10171.32
210.226	10325.39
210.3	10477.5
210.374	10624.96
210.448	10745.13
210.522	10884.19
210.596	11015.5
210.67	11146.04
210.744	11312.39
210.818	11469.96
210.892	11605.82
210.966	11716.62
211.041	11850.65
211.115	11969.89
211.189	12113.04
211.263	12242.7
211.337	12358.33
211.411	12488.96
211.485	12594.96
211.559	12729.98
211.633	12852.7
211.707	12939.66
211.781	13064.37
211.855	13140.39
211.929	13242.54
212.003	13339.91
212.077	13460.81
212.151	13581.13
212.225	13701.41
212.299	13790.93
212.373	13880.59
212.447	13981.24
212.52	14123.88
212.594	14229.36
212.668	14341.72
212.742	14423.62
212.816	14519.65
212.89	14617.89
212.964	14723.5
213.038	14823.48
213.112	14928.95
213.186	15041.45
213.26	15112.99
213.333	15159.94
213.407	15261.16
213.481	15355.59
213.555	15463.28
213.629	15536.64
213.703	15607.25
213.777	15689.24
213.85	15770.02
213.924	15895.87
213.998	15989.43
214.072	16064.52
214.146	16136.33
214.219	16213.02
214.293	16296.93
214.367	16382
214.441	16474.54
214.515	16542.16
214.588	16601.92
214.662	16646.94
214.736	16698.17
214.81	16776.44
214.883	16859.19
214.957	16919.49
215.031	16986.24
215.105	17029.86
215.178	17091.01
215.252	17152.46
215.326	17197.67
215.4	17238.68
215.473	17257.38
215.547	17290.68
215.621	17337.96
215.694	17404.37
215.768	17437.81
215.842	17482.58
215.915	17530.34
215.989	17573.86
216.063	17620.85
216.136	17677.47
216.21	17742.39
216.284	17814.53
216.357	17883.3
216.431	17945.22
216.504	18008.21
216.578	18087.1
216.652	18153.6
216.725	18207.53
216.799	18270.99
216.873	18322.51
216.946	18385.5
217.02	18431.66
217.093	18492.38
217.167	18523.27
217.24	18557.44
217.314	18610.35
217.387	18659.17
217.461	18702.97
217.535	18758.73
217.608	18792.13
217.682	18839.93
217.755	18890.43
217.829	18917.8
217.902	18952.4
217.976	18987.78
218.049	19024.45
218.123	19048.78
218.196	19102.76
218.27	19147.48
218.343	19180.1
218.417	19234.03
218.49	19275.85
218.563	19347.08
218.637	19393.82
218.71	19464.71
218.784	19524.13
218.857	19585.43
218.931	19634.82
219.004	19679.59
219.077	19733.18
219.151	19791.25
219.224	19829.71
219.298	19874.81
219.371	19939.58
219.444	19967.97
219.518	20022.23
219.591	20064.25
219.665	20141.6
219.738	20182.03
219.811	20215.67
219.885	20260.06
219.958	20311.72
220.031	20354.08
220.105	20399.57
220.178	20445.36
220.251	20477.55
220.325	20518.8
220.398	20563.82
220.471	20602.66
220.544	20650.66
220.618	20676.25
220.691	20716.3
220.764	20761.41
220.838	20804.35
220.911	20832.93
220.984	20897.8
221.057	20930.43
221.131	20977.52
221.204	20976.41
221.277	21033.42
221.35	21095.12
221.424	21122.83
221.497	21155.02
221.57	21183.6
221.643	21204.38
221.716	21247.56
221.79	21268.91
221.863	21299.95
221.936	21329.74
222.009	21364.54
222.082	21395.92
222.155	21422.18
222.229	21461.08
222.302	21495.64
222.375	21518.49
222.448	21548.61
222.521	21579.27
222.594	21606.93
222.667	21614.5
222.74	21655.47
222.814	21674.85
222.887	21681.02
222.96	21726.52
223.033	21758.14
223.106	21797.33
223.179	21829.05
223.252	21844.86
223.325	21875.42
223.398	21891.66
223.471	21913.26
223.544	21935.14
223.617	21962.18
223.69	21981.37
223.763	21982.72
223.837	21999.73
223.91	22025.33
223.983	22031.98
224.056	22038.35
224.129	22057.58
224.202	22079.75
224.275	22073.34
224.348	22068.13
224.42	22086.74
224.493	22075.8
224.566	22074.79
224.639	22083.71
224.712	22092.14
224.785	22103.9
224.858	22106.94
224.931	22120.63
225.004	22118.65
225.077	22133.21
225.15	22117.35
225.223	22124.92
225.296	22158.96
225.369	22145.22
225.442	22136.73
225.514	22139
225.587	22145.94
225.66	22152.88
225.733	22175.54
225.806	22190.68
225.879	22198.29
225.952	22181.57
226.025	22202.73
226.097	22231.94
226.17	22236.09
226.243	22209.09
226.316	22208.9
226.389	22218.3
226.461	22226.11
226.534	22237.49
226.607	22226.59
226.68	22246.16
226.753	22250.74
226.825	22229.63
226.898	22246.84
226.971	22251.76
227.044	22260.53
227.117	22261.54
227.189	22260.77
227.262	22266.41
227.335	22278.7
227.407	22275.96
227.48	22281.88
227.553	22278.8
227.626	22256.81
227.698	22252.19
227.771	22262.31
227.844	22248.43
227.916	22249.34
227.989	22223.74
228.062	22210.2
228.134	22226.69
228.207	22217.77
228.28	22203.02
228.352	22198.39
228.425	22187.69
228.498	22201.52
228.57	22183.93
228.643	22192.41
228.716	22184.17
228.788	22166.14
228.861	22150.18
228.934	22147.87
229.006	22146.23
229.079	22126.42
229.151	22108.58
229.224	22083.71
229.296	22084.14
229.369	22100.44
229.442	22095.9
229.514	22083.66
229.587	22086.02
229.659	22063.66
229.732	22055.36
229.804	22062.35
229.877	22074.65
229.949	22089.93
230.022	22097.01
230.094	22091.23
230.167	22082.17
230.239	22060.86
230.312	22049.97
230.384	22063.95
230.457	22064.43
230.529	22065.15
230.602	22072.82
230.674	22065.39
230.747	22078.84
230.819	22079.71
230.892	22043.32
230.964	22042.45
231.037	22037.43
231.109	22018.88
231.181	22003.64
231.254	21979.35
231.326	21961.42
231.399	21947.58
231.471	21921.22
231.544	21876.48
231.616	21875.71
231.688	21849.53
231.761	21831.75
231.833	21809.43
231.905	21767.06
231.978	21749.75
232.05	21717.7
232.122	21697.79
232.195	21687
232.267	21675.52
232.339	21654.94
232.412	21646.84
232.484	21619.95
232.556	21590.16
232.629	21596.09
232.701	21603.7
232.773	21592.86
232.846	21563.22
232.918	21546.73
232.99	21530.05
233.062	21531.64
233.135	21527.16
233.207	21503.45
233.279	21499.98
233.351	21488.46
233.424	21463.06
233.496	21429.46
233.568	21428.11
233.64	21390.13
233.713	21371.34
233.785	21350.27
233.857	21330.95
233.929	21302.03
234.001	21296.73
234.074	21300
234.146	21261.44
234.218	21227.08
234.29	21204.47
234.362	21180.23
234.434	21133.82
234.507	21102.01
234.579	21048.27
234.651	21010.48
234.723	20985.52
234.795	20960.74
234.867	20931.1
234.939	20914.72
235.012	20888.11
235.084	20879.34
235.156	20875
235.228	20843.05
235.3	20807.19
235.372	20780.4
235.444	20757.36
235.516	20705.12
235.588	20688.58
235.66	20661.45
235.732	20625.35
235.804	20663.53
235.876	20647.43
235.948	20642.42
236.02	20619.77
236.092	20593.89
236.164	20564.78
236.236	20537.74
236.308	20506.56
236.38	20485.84
236.452	20458.47
236.524	20443.38
236.596	20429.69
236.668	20406.03
236.74	20376.54
236.812	20357.02
236.884	20332.92
236.956	20316.88
237.028	20281.89
237.1	20237.02
237.172	20219.48
237.244	20209.7
237.316	20135.91
237.388	20093.17
237.46	20048.88
237.532	20029.5
237.604	19993.99
237.675	19982.13
237.747	19958.42
237.819	19920.79
237.891	19888.74
237.963	19856.89
238.035	19816.84
238.107	19740.99
238.178	19719.59
238.25	19682.05
238.322	19669.86
238.394	19617.67
238.466	19572.95
238.538	19550.25
238.609	19525.48
238.681	19478.2
238.753	19431.12
238.825	19397.05
238.897	19377.1
238.968	19361.2
239.04	19313.92
239.112	19312
239.184	19274.75
239.255	19235.86
239.327	19213.45
239.399	19182.27
239.471	19149.98
239.542	19116.88
239.614	19102.8
239.686	19044.4
239.758	19022.52
239.829	18973.17
239.901	18959.2
239.973	18929.56
240.044	18897.13
240.116	18851.64
240.188	18823.93
240.259	18792.46
240.331	18748.61
240.403	18717.96
240.474	18669.77
240.546	18632.62
240.618	18574.69
240.689	18527.66
240.761	18496.43
240.833	18472
240.904	18428.82
240.976	18391.96
241.048	18360.97
241.119	18330.8
241.191	18293.94
241.262	18268.88
241.334	18217.84
241.405	18177.32
241.477	18140.06
241.549	18097.51
241.62	18072.31
241.692	18032.45
241.763	18013.9
241.835	17977.37
241.906	17948.12
241.978	17893.42
242.049	17867.01
242.121	17842.97
242.192	17819.26
242.264	17770.05
242.335	17718.05
242.407	17697.47
242.478	17656.85
242.55	17636.37
242.621	17592.51
242.693	17560.18
242.764	17530.59
242.836	17503.79
242.907	17483.98
242.979	17449
243.05	17423.89
243.122	17394.25
243.193	17360.71
243.264	17293.09
243.336	17260.56
243.407	17227.74
243.479	17216.8
243.55	17186.97
243.622	17157.67
243.693	17117.43
243.764	17107.21
243.836	17054.77
243.907	17013.85
243.978	16981.8
244.05	16944.02
244.121	16892.89
244.192	16869.13
244.264	16812.35
244.335	16779.63
244.407	16715.43
244.478	16685.5
244.549	16645.07
244.62	16596.39
244.692	16573.49
244.763	16556.38
244.834	16515.61
244.906	16476.52
244.977	16447.94
245.048	16434.06
245.119	16396.61
245.191	16358.73
245.262	16302.34
245.333	16299.5
245.405	16269.04
245.476	16245.13
245.547	16215.34
245.618	16195.25
245.689	16158.95
245.761	16136.83
245.832	16099.04
245.903	16084.53
245.974	16066.17
246.045	16032.82
246.117	16012.57
246.188	15954.44
246.259	15910.24
246.33	15873.61
246.401	15838.38
246.473	15785.65
246.544	15734.17
246.615	15710.84
246.686	15667.51
246.757	15651.12
246.828	15603.55
246.899	15591.06
246.97	15533.32
247.042	15491.53
247.113	15467.43
247.184	15459.67
247.255	15422.41
247.326	15392.72
247.397	15359.02
247.468	15313.86
247.539	15283.44
247.61	15243.77
247.681	15232.3
247.752	15217.6
247.823	15181.93
247.894	15160.24
247.965	15125.92
248.037	15093.77
248.108	15045.9
248.179	15024.06
248.25	14995.19
248.321	14969.02
248.392	14923.13
248.463	14921.49
248.534	14897.63
248.605	14872.13
248.675	14826.19
248.746	14803.92
248.817	14782.42
248.888	14754.66
248.959	14709.49
249.03	14689.82
249.101	14656.46
249.172	14619.2
249.243	14559.76
249.314	14552.53
249.385	14520
249.456	14497.92
249.527	14466.34
249.598	14440.75
249.669	14409.65
249.739	14381.21
249.81	14362.65
249.881	14312.13
249.952	14282.39
250.023	14251.25
250.094	14210.57
250.165	14181.45
250.235	14144.86
250.306	14117.72
250.377	14083.83
250.448	14064.02
250.519	14018.22
250.59	14013.36
250.66	13981.01
250.731	13984.58
250.802	13951.41
250.873	13932.8
250.944	13907.88
251.014	13877.27
251.085	13880.26
251.156	13866.76
251.227	13860.11
251.297	13857.89
251.368	13855.48
251.439	13844.25
251.51	13828.73
251.58	13796.28
251.651	13766.49
251.722	13764.03
251.792	13724.17
251.863	13690.71
251.934	13690.71
252.005	13698.66
252.075	13670.75
252.146	13660.19
252.217	13648.63
252.287	13642.17
252.358	13606.06
252.429	13609.24
252.499	13574.58
252.57	13552.69
252.641	13537.46
252.711	13509.5
252.782	13466.4
252.852	13466.02
252.923	13440.42
252.994	13416.51
253.064	13404.12
253.135	13373.17
253.205	13340.92
253.276	13339.62
253.347	13345.94
253.417	13313.06
253.488	13279.41
253.558	13249.52
253.629	13227.73
253.699	13205.46
253.77	13182.37
253.841	13162.66
253.911	13135.85
253.982	13122.74
254.052	13105.53
254.123	13076.37
254.193	13051.06
254.264	13067.11
254.334	13028.69
254.405	12993.79
254.475	12961.49
254.546	12940.81
254.616	12941.2
254.687	12923.89
254.757	12908.03
254.827	12873.42
254.898	12852.06
254.968	12836.35
255.039	12810.66
255.109	12794.84
255.18	12760.76
255.25	12717.86
255.321	12707.35
255.391	12672.74
255.461	12681.66
255.532	12627.57
255.602	12604.72
255.673	12563.89
255.743	12529.81
255.813	12478.62
255.884	12470.67
255.954	12459.29
256.024	12460.74
256.095	12438.47
256.165	12399.9
256.235	12385.88
256.306	12361.92
256.376	12353.43
256.446	12333.67
256.517	12322.63
256.587	12313.81
256.657	12296.31
256.728	12282.58
256.798	12265.17
256.868	12242.76
256.938	12206.75
257.009	12197.93
257.079	12190.31
257.149	12200.34
257.219	12152.81
257.29	12143.27
257.36	12098.39
257.43	12090.2
257.5	12038.86
257.571	12013.61
257.641	12006.57
257.711	11970.22
257.781	11958.99
257.852	11948.53
257.922	11910.79
257.992	11894.41
258.062	11873.29
258.132	11865.24
258.202	11847.6
258.273	11822.06
258.343	11823.02
258.413	11794.2
258.483	11774.15
258.553	11738.62
258.623	11709.17
258.693	11698.42
258.764	11699.44
258.834	11704.35
258.904	11684.78
258.974	11661.7
259.044	11641.65
259.114	11630.27
259.184	11618.22
259.254	11600.49
259.324	11557.01
259.394	11551.85
259.464	11551.18
259.535	11530.31
259.605	11507.99
259.675	11472.72
259.745	11468.04
259.815	11429.73
259.885	11406.45
259.955	11425.97
260.025	11402.11
260.095	11382.55
260.165	11369.87
260.235	11367.9
260.305	11346.35
260.375	11320.33
260.445	11332.76
260.515	11327.46
260.585	11322.69
260.655	11294.83
260.725	11280.95
260.795	11275.7
260.865	11278.93
260.934	11250.49
261.004	11241.91
261.074	11229.05
261.144	11234.54
261.214	11219.31
261.284	11208.23
261.354	11212.42
261.424	11179.4
261.494	11186.78
261.564	11167.07
261.634	11158.58
261.703	11116.08
261.773	11106.92
261.843	11097.38
