Data from 20250703_urea_0.1M_MAYP1162681_06-11-05-229.txt Node
Date: Fri Jul 04 06:11:05 BST 2025
User: adleo
Spectrometer: MAYP116268
Trigger mode: 0
Integration Time (sec): 1.000000E0
Scans to average: 1
Electric dark correction enabled: true
Nonlinearity correction enabled: true
Boxcar width: 10
XAxis mode: Wavelengths
Number of Pixels in Spectrum: 2068
>>>>>Begin Spectral Data<<<<<
179.565	1255.2
179.642	1312.44
179.718	1358.5
179.795	1399.9
179.871	1433.91
179.948	1449.02
180.024	1469.8
180.101	1493.04
180.177	1507.96
180.254	1531.56
180.33	1555.68
180.407	1612.99
180.483	1710.43
180.56	1804.45
180.636	1891.34
180.712	1878.88
180.789	1889.38
180.865	1900.88
180.942	1909.11
181.018	1918.9
181.095	1932.79
181.171	1941.68
181.248	1943.39
181.324	1958.42
181.4	1965.37
181.477	1976.45
181.553	1995.79
181.63	2016.96
181.706	2032.89
181.782	2040.07
181.859	2037.59
181.935	2042.49
182.011	2039.5
182.088	2057.95
182.164	2078.46
182.24	2091.77
182.317	2100.47
182.393	2098.33
182.469	2115.46
182.546	2128.44
182.622	2130.96
182.698	2125.49
182.775	2133.72
182.851	2151.37
182.927	2143.33
183.003	2140.62
183.08	2136.58
183.156	2142.67
183.232	2139.76
183.308	2128.16
183.385	2139.71
183.461	2160.93
183.537	2160.5
183.613	2175.77
183.69	2166.55
183.766	2154.93
183.842	2162.07
183.918	2170.63
183.995	2184.19
184.071	2187.43
184.147	2183.57
184.223	2171.59
184.299	2186.1
184.375	2178.21
184.452	2184.16
184.528	2233.55
184.604	2243.11
184.68	2250.77
184.756	2260.14
184.832	2263.61
184.908	2270.18
184.985	2268.13
185.061	2250.67
185.137	2260.9
185.213	2245.77
185.289	2246.34
185.365	2239.4
185.441	2237.92
185.517	2248.21
185.593	2244.45
185.669	2240.12
185.745	2253.44
185.822	2270.18
185.898	2257.85
185.974	2263.37
186.05	2253.57
186.126	2222.12
186.202	2216.5
186.278	2215.5
186.354	2203.42
186.43	2213.03
186.506	2211.46
186.582	2210.89
186.658	2218.84
186.734	2196.91
186.81	2200.57
186.886	2203.09
186.962	2216.55
187.038	2214.94
187.114	2211.75
187.19	2219.41
187.266	2209.7
187.341	2207.28
187.417	2202.09
187.493	2204.33
187.569	2208.09
187.645	2200.71
187.721	2188.43
187.797	2194.38
187.873	2196.76
187.949	2190.95
188.025	2185
188.101	2187.91
188.176	2194.71
188.252	2190.05
188.328	2196.94
188.404	2197.85
188.48	2197.32
188.556	2188.8
188.632	2188.9
188.707	2187.47
188.783	2182.95
188.859	2179.53
188.935	2168.92
189.011	2175.67
189.086	2169.3
189.162	2162.59
189.238	2160.54
189.314	2158.26
189.39	2153.79
189.465	2150.08
189.541	2167.73
189.617	2150.32
189.693	2145.13
189.768	2147.42
189.844	2173.07
189.92	2168.27
189.996	2176.12
190.071	2183.83
190.147	2183.16
190.223	2190.11
190.298	2179.93
190.374	2168.27
190.45	2180.4
190.526	2192.34
190.601	2187.44
190.677	2187.44
190.753	2213.91
190.828	2218.91
190.904	2235.09
190.98	2248.46
191.055	2257.6
191.131	2247.98
191.207	2270.34
191.282	2279.72
191.358	2272.1
191.433	2256.44
191.509	2268.66
191.585	2263.28
191.66	2264.19
191.736	2271.99
191.811	2264.76
191.887	2282.13
191.963	2309.31
192.038	2311.97
192.114	2308.93
192.189	2310.73
192.265	2310.45
192.34	2291.02
192.416	2288.55
192.491	2283.36
192.567	2284.17
192.642	2288.12
192.718	2289.17
192.793	2275.08
192.869	2272.13
192.944	2271.04
193.02	2276.6
193.095	2280.89
193.171	2290.07
193.246	2290.5
193.322	2289.26
193.397	2289.45
193.473	2277.08
193.548	2255.75
193.624	2262.42
193.699	2259.85
193.775	2279.03
193.85	2276.46
193.925	2283.32
194.001	2283.55
194.076	2273.89
194.152	2265.8
194.227	2256.71
194.302	2247.2
194.378	2255
194.453	2250.53
194.529	2262.76
194.604	2249.77
194.679	2243.68
194.755	2223.93
194.83	2236.5
194.905	2232.22
194.981	2240.98
195.056	2232.41
195.131	2239.07
195.207	2240.31
195.282	2232.46
195.357	2211.04
195.433	2227.41
195.508	2214.89
195.583	2220.51
195.659	2234.83
195.734	2242.59
195.809	2244.07
195.884	2253.77
195.96	2251.15
196.035	2268.71
196.11	2266.05
196.185	2278.89
196.261	2281.8
196.336	2312.68
196.411	2299.02
196.486	2307.92
196.561	2302.11
196.637	2311.24
196.712	2327.81
196.787	2325.15
196.862	2338.61
196.937	2350.75
197.013	2357.32
197.088	2368.74
197.163	2391.31
197.238	2410.27
197.313	2408.55
197.388	2419.46
197.464	2450.6
197.539	2462.22
197.614	2452.94
197.689	2466.93
197.764	2482.13
197.839	2505.07
197.914	2499.41
197.989	2521.65
198.065	2530.69
198.14	2582.78
198.215	2608.54
198.29	2620.64
198.365	2638.46
198.44	2650.36
198.515	2678.14
198.59	2695.24
198.665	2723.11
198.74	2732.11
198.815	2733.31
198.89	2756.6
198.965	2789.25
199.04	2785.2
199.115	2801.11
199.19	2844.18
199.265	2841.7
199.34	2852.61
199.415	2886.33
199.49	2906.24
199.565	2916.15
199.64	2943.51
199.715	2940.89
199.79	2949.32
199.865	2956.14
199.94	2952.66
200.015	2986.99
200.09	2993.72
200.165	3002.73
200.24	3011.31
200.315	3057.27
200.39	3076.68
200.464	3081.92
200.539	3083.35
200.614	3099.32
200.689	3124.84
200.764	3134.33
200.839	3158.16
200.914	3163.21
200.989	3152.29
201.063	3169.7
201.138	3153.87
201.213	3156.78
201.288	3136.66
201.363	3141.76
201.438	3142
201.512	3162.83
201.587	3142.85
201.662	3145.56
201.737	3154.2
201.812	3159.78
201.886	3122.78
201.961	3132.57
202.036	3125.13
202.111	3120.69
202.186	3093.91
202.26	3074.78
202.335	3052.89
202.41	3044.55
202.485	3029.77
202.559	3011.32
202.634	2986.19
202.709	2996.44
202.784	2974.74
202.858	2977.37
202.933	2963.97
203.008	2960.39
203.082	2940.47
203.157	2946.57
203.232	2907.88
203.306	2893.76
203.381	2868.49
203.456	2849.71
203.53	2827.15
203.605	2814.04
203.68	2799.6
203.754	2800.93
203.829	2795.54
203.904	2785.87
203.978	2787.73
204.053	2803.27
204.127	2803.46
204.202	2814.04
204.277	2809.42
204.351	2820
204.426	2830.3
204.5	2835.3
204.575	2817.39
204.65	2846.66
204.724	2858.78
204.799	2889.7
204.873	2905.91
204.948	2927.94
205.022	2942.48
205.097	2963.75
205.171	3003.85
205.246	3045.41
205.32	3077.82
205.395	3112.69
205.469	3138.1
205.544	3180.67
205.618	3200.86
205.693	3257.6
205.767	3289.33
205.842	3356.49
205.916	3396.15
205.991	3435.25
206.065	3492.39
206.14	3565.35
206.214	3615.71
206.289	3665.88
206.363	3734.85
206.438	3798.31
206.512	3870.89
206.586	3956.23
206.661	4033.17
206.735	4077.7
206.81	4148.41
206.884	4231.4
206.958	4289.73
207.033	4381.24
207.107	4466.39
207.181	4574.92
207.256	4644.56
207.33	4742.91
207.405	4832.96
207.479	4935.04
207.553	5020.73
207.628	5090.01
207.702	5180.44
207.776	5261.41
207.851	5352.12
207.925	5458.79
207.999	5546.94
208.073	5632.96
208.148	5726.81
208.222	5804.9
208.296	5933.35
208.371	6041.15
208.445	6152.38
208.519	6273.86
208.593	6386.8
208.668	6479.28
208.742	6582.46
208.816	6679.43
208.89	6796.59
208.965	6894.56
209.039	6996.36
209.113	7117.24
209.187	7237.7
209.261	7341.92
209.336	7460.97
209.41	7579.51
209.484	7675.87
209.558	7801.18
209.632	7916.72
209.707	8031.09
209.781	8160.24
209.855	8281.29
209.929	8398.28
210.003	8499.81
210.077	8603.12
210.151	8750.81
210.226	8887.75
210.3	9011.73
210.374	9138.41
210.448	9235.04
210.522	9351.94
210.596	9473.18
210.67	9582.15
210.744	9734.14
210.818	9863.68
210.892	9984.77
210.966	10081.14
211.041	10203.97
211.115	10298.39
211.189	10422.43
211.263	10533.14
211.337	10626.66
211.411	10733.77
211.485	10825.27
211.559	10933.44
211.633	11033.85
211.707	11093.52
211.781	11191.02
211.855	11250.34
211.929	11340.5
212.003	11418.09
212.077	11517.28
212.151	11618.88
212.225	11720.33
212.299	11796.35
212.373	11878.38
212.447	11960.42
212.52	12073.3
212.594	12157.8
212.668	12255.12
212.742	12324.29
212.816	12402.81
212.89	12494.01
212.964	12577.5
213.038	12666.82
213.112	12761.02
213.186	12857.09
213.26	12925.49
213.333	12960.87
213.407	13047.54
213.481	13127.28
213.555	13225.04
213.629	13290.84
213.703	13351.87
213.777	13424.03
213.85	13487.42
213.924	13595.31
213.998	13680.25
214.072	13746.77
214.146	13810.55
214.219	13881.46
214.293	13952.95
214.367	14029.36
214.441	14105.71
214.515	14169.06
214.588	14214.9
214.662	14251.2
214.736	14300.51
214.81	14371.86
214.883	14450.82
214.957	14507.56
215.031	14559.19
215.105	14596.83
215.178	14649.47
215.252	14711.56
215.326	14752.34
215.4	14791.05
215.473	14805.22
215.547	14846.44
215.621	14904.81
215.694	14965.35
215.768	15002.08
215.842	15046.57
215.915	15086
215.989	15117.67
216.063	15158.74
216.136	15209.93
216.21	15271.92
216.284	15334.82
216.357	15389.92
216.431	15433.01
216.504	15501.99
216.578	15583.69
216.652	15647.17
216.725	15707.95
216.799	15771.28
216.873	15830.95
216.946	15891.83
217.02	15938.29
217.093	15988.61
217.167	16008.33
217.24	16048.53
217.314	16094.89
217.387	16134.32
217.461	16184.3
217.535	16243.59
217.608	16287.25
217.682	16341.04
217.755	16388.76
217.829	16431.89
217.902	16482.98
217.976	16541.69
218.049	16578.17
218.123	16606.85
218.196	16658.22
218.27	16690.66
218.343	16711.43
218.417	16762.13
218.49	16808.25
218.563	16870.67
218.637	16921.7
218.71	16992.98
218.784	17051.83
218.857	17114.77
218.931	17170.77
219.004	17223.88
219.077	17278.78
219.151	17324.66
219.224	17368.7
219.298	17417.23
219.371	17468.42
219.444	17500.22
219.518	17547.5
219.591	17594.97
219.665	17672.17
219.738	17725.33
219.811	17770.48
219.885	17839.54
219.958	17891.59
220.031	17932.79
220.105	17985.08
220.178	18031.1
220.251	18072.69
220.325	18119.48
220.398	18165.75
220.471	18221.55
220.544	18274.37
220.618	18308.92
220.691	18362.75
220.764	18412.05
220.838	18462.12
220.911	18501.49
220.984	18570.35
221.057	18616.95
221.131	18666.59
221.204	18671.94
221.277	18733.38
221.35	18809.67
221.424	18834.48
221.497	18876.99
221.57	18928.12
221.643	18961.85
221.716	19011.1
221.79	19043.63
221.863	19085.55
221.936	19117.26
222.009	19154.75
222.082	19196.77
222.155	19231.09
222.229	19281.64
222.302	19316.14
222.375	19354.26
222.448	19402.35
222.521	19427.31
222.594	19453.92
222.667	19473.19
222.74	19521.09
222.814	19537.72
222.887	19554.05
222.96	19593.81
223.033	19628.8
223.106	19650.48
223.179	19694.19
223.252	19723.73
223.325	19755.25
223.398	19778.53
223.471	19815.92
223.544	19841.75
223.617	19864.11
223.69	19889.75
223.763	19899.34
223.837	19922.57
223.91	19956.3
223.983	19962.23
224.056	19971.58
224.129	19999.72
224.202	20030.71
224.275	20042.08
224.348	20059.62
224.42	20066.95
224.493	20070.95
224.566	20074.66
224.639	20112.78
224.712	20121.98
224.785	20130.99
224.858	20151.62
224.931	20164.29
225.004	20172.92
225.077	20190.08
225.15	20173.07
225.223	20185.5
225.296	20223.28
225.369	20228.58
225.442	20234.13
225.514	20253.5
225.587	20278.56
225.66	20298.61
225.733	20320.73
225.806	20340.34
225.879	20349.83
225.952	20352.82
226.025	20386.22
226.097	20418.22
226.17	20418.08
226.243	20407.52
226.316	20413.84
226.389	20424
226.461	20432.49
226.534	20442.85
226.607	20447.76
226.68	20489.11
226.753	20503.57
226.825	20494.75
226.898	20524.34
226.971	20520.15
227.044	20539.18
227.117	20549.74
227.189	20559.81
227.262	20580.92
227.335	20597.6
227.407	20600.82
227.48	20612.97
227.553	20619.57
227.626	20625.55
227.698	20632.97
227.771	20649.26
227.844	20645.16
227.916	20649.11
227.989	20645.98
228.062	20658.56
228.134	20688.49
228.207	20686.22
228.28	20680.39
228.352	20679.33
228.425	20680.39
228.498	20702.95
228.57	20688.1
228.643	20706.27
228.716	20701.5
228.788	20688.3
228.861	20685.5
228.934	20706.13
229.006	20706.22
229.079	20703.28
229.151	20698.85
229.224	20696.1
229.296	20710.13
229.369	20748.15
229.442	20765.17
229.514	20765.02
229.587	20773.74
229.659	20759.14
229.732	20763.05
229.804	20781.36
229.877	20815.67
229.949	20829.36
230.022	20844.59
230.094	20848.35
230.167	20851.39
230.239	20842.95
230.312	20846.28
230.384	20866.91
230.457	20857.61
230.529	20864.74
230.602	20871.77
230.674	20869.99
230.747	20876.98
230.819	20877.94
230.892	20836.78
230.964	20835.97
231.037	20835.63
231.109	20827.63
231.181	20822.52
231.254	20811.29
231.326	20812.59
231.399	20799.34
231.471	20782.95
231.544	20744.44
231.616	20747
231.688	20729.21
231.761	20729.65
231.833	20711.09
231.905	20675.81
231.978	20671.81
232.05	20661.98
232.122	20652.87
232.195	20634.9
232.267	20633.11
232.339	20608.15
232.412	20612.05
232.484	20593.02
232.556	20573.21
232.629	20580.05
232.701	20573.21
232.773	20565.59
232.846	20533.26
232.918	20516.49
232.99	20496.1
233.062	20501.64
233.135	20494.56
233.207	20470.08
233.279	20461.16
233.351	20460.87
233.424	20432.24
233.496	20408.73
233.568	20415.62
233.64	20390.41
233.713	20372.34
233.785	20353.88
233.857	20347.96
233.929	20321.55
234.001	20326.37
234.074	20333.59
234.146	20297.93
234.218	20288.44
234.29	20263.81
234.362	20245.6
234.434	20204.78
234.507	20178.22
234.579	20141.36
234.651	20114.51
234.723	20108.44
234.795	20089.26
234.867	20070.47
234.939	20081.5
235.012	20067
235.084	20054.85
235.156	20032.73
235.228	20016.64
235.3	19983.82
235.372	19964.59
235.444	19953.03
235.516	19900.69
235.588	19878.38
235.66	19852.98
235.732	19818.28
235.804	19853.32
235.876	19847.87
235.948	19852.31
236.02	19834.09
236.092	19819.54
236.164	19798.72
236.236	19776.31
236.308	19742.91
236.38	19707.83
236.452	19669.71
236.524	19650.77
236.596	19631.21
236.668	19609.04
236.74	19579.93
236.812	19562.59
236.884	19547.26
236.956	19525.05
237.028	19493.91
237.1	19457.63
237.172	19446.64
237.244	19431.75
237.316	19372.04
237.388	19334.6
237.46	19290.26
237.532	19282.84
237.604	19244.34
237.675	19234.51
237.747	19205.83
237.819	19178.94
237.891	19151.67
237.963	19115.09
238.035	19075.82
238.107	19013.08
238.178	19004.5
238.25	18973.66
238.322	18968.5
238.394	18924.98
238.466	18892.75
238.538	18872.17
238.609	18850.63
238.681	18801.67
238.753	18761.14
238.825	18736.42
238.897	18711.65
238.968	18699.07
239.04	18651.22
239.112	18654.78
239.184	18604.62
239.255	18570.64
239.327	18541.78
239.399	18520.33
239.471	18507.03
239.542	18484.29
239.614	18471.61
239.686	18411.86
239.758	18394.61
239.829	18346.37
239.901	18321.12
239.973	18287
240.044	18259.87
240.116	18231.58
240.188	18198.81
240.259	18178.13
240.331	18136.83
240.403	18115.34
240.474	18072.16
240.546	18045.75
240.618	17993.32
240.689	17959.11
240.761	17935.2
240.833	17926.82
240.904	17885.95
240.976	17843.83
241.048	17813.95
241.119	17790
241.191	17766.34
241.262	17749.23
241.334	17720.32
241.405	17690.73
241.477	17647.26
241.549	17608.66
241.62	17569.04
241.692	17545.67
241.763	17517.96
241.835	17483.84
241.906	17447.12
241.978	17402.49
242.049	17376.51
242.121	17348.42
242.192	17329.14
242.264	17276.03
242.335	17219.88
242.407	17203.26
242.478	17169.96
242.55	17146.29
242.621	17099.01
242.693	17061.13
242.764	17021.66
242.836	16984.12
242.907	16957.95
242.979	16939.49
243.05	16914.86
243.122	16887.59
243.193	16851.15
243.264	16796.45
243.336	16761.17
243.407	16743.43
243.479	16722.28
243.55	16686.9
243.622	16657.65
243.693	16628.92
243.764	16614.51
243.836	16571.37
243.907	16531.32
243.978	16500
244.05	16460.96
244.121	16411.07
244.192	16391.99
244.264	16343.16
244.335	16312.46
244.407	16251.3
244.478	16224.36
244.549	16187.29
244.62	16151
244.692	16118.22
244.763	16097.35
244.834	16060.91
244.906	16009.2
244.977	15992.47
245.048	15982.88
245.119	15938.92
245.191	15886.72
245.262	15836.07
245.333	15811.24
245.405	15776.93
245.476	15741.74
245.547	15713.01
245.618	15692.29
245.689	15660.47
245.761	15634.45
245.832	15601.33
245.903	15590.34
245.974	15559.54
246.045	15527.15
246.117	15501.36
246.188	15456.63
246.259	15412.62
246.33	15382.93
246.401	15359.36
246.473	15300.02
246.544	15254.76
246.615	15239.82
246.686	15214.42
246.757	15199.19
246.828	15169.35
246.899	15151.76
246.97	15106.44
247.042	15060.07
247.113	15043.01
247.184	15027.68
247.255	14988.01
247.326	14957.35
247.397	14919.61
247.468	14885.43
247.539	14856.7
247.61	14813.46
247.681	14800.88
247.752	14785.7
247.823	14738.36
247.894	14702.88
247.965	14670.39
248.037	14632.41
248.108	14587.29
248.179	14550.75
248.25	14515.03
248.321	14500.04
248.392	14456.51
248.463	14453.28
248.534	14428.02
248.605	14406.76
248.675	14376.44
248.746	14358.99
248.817	14339.42
248.888	14315.37
248.959	14273.38
249.03	14259.25
249.101	14232.6
249.172	14200.25
249.243	14148.96
249.314	14145.39
249.385	14118.83
249.456	14102.49
249.527	14075.54
249.598	14050.47
249.669	14026.95
249.739	14006.8
249.81	13981.97
249.881	13942.15
249.952	13919.93
250.023	13891.2
250.094	13839.76
250.165	13800.09
250.235	13770.54
250.306	13741.71
250.377	13705.32
250.448	13690.23
250.519	13637.88
250.59	13631.95
250.66	13590.87
250.731	13583.74
250.802	13553.9
250.873	13529.94
250.944	13500.78
251.014	13469.2
251.085	13469.35
251.156	13448.04
251.227	13432.66
251.297	13414.58
251.368	13409.23
251.439	13391.73
251.51	13385.13
251.58	13354.71
251.651	13326.56
251.722	13312.05
251.792	13268.13
251.863	13241.47
251.934	13228.65
252.005	13230.43
252.075	13204.02
252.146	13201.7
252.217	13194.86
252.287	13181.55
252.358	13161.84
252.429	13158.7
252.499	13133.73
252.57	13117.05
252.641	13114.06
252.711	13096.66
252.782	13062.87
252.852	13057.47
252.923	13040.02
252.994	13018.9
253.064	13013.75
253.135	12980.77
253.205	12960.09
253.276	12955.56
253.347	12958.84
253.417	12927.55
253.488	12906.73
253.558	12878.53
253.629	12849.9
253.699	12824.15
253.77	12811.33
253.841	12783.71
253.911	12762.69
253.982	12743.55
254.052	12724.99
254.123	12692.99
254.193	12666.76
254.264	12680.84
254.334	12643.14
254.405	12601.2
254.475	12567.27
254.546	12537.09
254.616	12541.72
254.687	12518.68
254.757	12496.46
254.827	12464.25
254.898	12444.83
254.968	12417.45
255.039	12390.5
255.109	12385.39
255.18	12356.13
255.25	12309.96
255.321	12299.21
255.391	12262.76
255.461	12275.15
255.532	12222.95
255.602	12199.86
255.673	12156.96
255.743	12124.37
255.813	12078.82
255.884	12067.5
255.954	12058.34
256.024	12067.16
256.095	12039.54
256.165	12010.67
256.235	12004.88
256.306	11990.9
256.376	11985.46
256.446	11975.72
256.517	11965.07
256.587	11953.84
256.657	11937.26
256.728	11920.14
256.798	11893.88
256.868	11875.8
256.938	11832.08
257.009	11827.79
257.079	11820.03
257.149	11829.14
257.219	11789.09
257.29	11785.86
257.36	11751.06
257.43	11740.5
257.5	11692.02
257.571	11667.15
257.641	11654.57
257.711	11615.24
257.781	11591.23
257.852	11577.01
257.922	11538.41
257.992	11517.49
258.062	11492.19
258.132	11488.67
258.202	11474.35
258.273	11464.57
258.343	11469
258.413	11446.64
258.483	11427.46
258.553	11400.81
258.623	11372.9
258.693	11358.63
258.764	11354.97
258.834	11353.62
258.904	11337.48
258.974	11318.25
259.044	11303.4
259.114	11291.79
259.184	11286.73
259.254	11259.84
259.324	11223.45
259.394	11215.93
259.464	11212.95
259.535	11192.95
259.605	11164.46
259.675	11130.83
259.745	11118.25
259.815	11081.72
259.885	11060.03
259.955	11069.09
260.025	11040.9
260.095	11024.13
260.165	11014.83
260.235	11021.24
260.305	10982.89
260.375	10945.06
260.445	10949.15
260.515	10946.7
260.585	10938.17
260.655	10919.76
260.725	10923.03
260.795	10911.71
260.865	10909.98
260.934	10884.19
261.004	10874.36
261.074	10857.06
261.144	10863.47
261.214	10852.24
261.284	10838.8
261.354	10830.85
261.424	10803.28
261.494	10807.81
261.564	10789.41
261.634	10775.53
261.703	10728.69
261.773	10732.78
261.843	10728.35
261.913	10708.02
261.983	10671.44
