Data from 20250703_urea_0.1M_MAYP1162681_12-51-05-244.txt Node
Date: Thu Jul 03 12:51:05 BST 2025
User: adleo
Spectrometer: MAYP116268
Trigger mode: 0
Integration Time (sec): 1.000000E0
Scans to average: 1
Electric dark correction enabled: true
Nonlinearity correction enabled: true
Boxcar width: 10
XAxis mode: Wavelengths
Number of Pixels in Spectrum: 2068
>>>>>Begin Spectral Data<<<<<
179.565	1184.68
179.642	1240.33
179.718	1282.42
179.795	1320.35
179.871	1352.56
179.948	1370.33
180.024	1391.12
180.101	1413.97
180.177	1430.53
180.254	1454.22
180.33	1474.8
180.407	1527.97
180.483	1623.42
180.56	1713.74
180.636	1799.34
180.712	1789.4
180.789	1801.66
180.865	1814.54
180.942	1823.85
181.018	1835.31
181.095	1850.24
181.171	1854.94
181.248	1854.94
181.324	1872.3
181.4	1883.28
181.477	1894.41
181.553	1908
181.63	1928.73
181.706	1942.61
181.782	1951.83
181.859	1951.21
181.935	1958.3
182.011	1953.83
182.088	1968.62
182.164	1987.55
182.24	1996.63
182.317	2004.81
182.393	2001.76
182.469	2017.31
182.546	2031.34
182.622	2033.81
182.698	2027.06
182.775	2038.57
182.851	2054.78
182.927	2046.51
183.003	2038.52
183.08	2031.67
183.156	2039.23
183.232	2035.57
183.308	2026.2
183.385	2033.57
183.461	2049.41
183.537	2048.94
183.613	2063.77
183.69	2056.78
183.766	2045.22
183.842	2056.3
183.918	2064.15
183.995	2080.37
184.071	2083.75
184.147	2075.28
184.223	2066.2
184.299	2079.9
184.375	2070.2
184.452	2075.39
184.528	2123.29
184.604	2134.99
184.68	2145.45
184.756	2155.58
184.832	2160.58
184.908	2164.71
184.985	2163.14
185.061	2149.59
185.137	2160.2
185.213	2147.4
185.289	2148.69
185.365	2141.08
185.441	2138.17
185.517	2148.41
185.593	2142.22
185.669	2136.61
185.745	2147.93
185.822	2164.86
185.898	2154.15
185.974	2162.76
186.05	2155.72
186.126	2123.56
186.202	2119.62
186.278	2116.1
186.354	2105.53
186.43	2110.53
186.506	2110.01
186.582	2107.53
186.658	2113.67
186.734	2095.03
186.81	2096.93
186.886	2099.45
186.962	2114.76
187.038	2111.58
187.114	2104.25
187.19	2112.29
187.266	2106.2
187.341	2108.91
187.417	2102.49
187.493	2103.92
187.569	2108.2
187.645	2102.11
187.721	2088.08
187.797	2093.36
187.873	2099.87
187.949	2091.98
188.025	2085.84
188.101	2089.17
188.176	2096.87
188.252	2091.36
188.328	2097.78
188.404	2098.97
188.48	2094.02
188.556	2085.27
188.632	2084.93
188.707	2089.55
188.783	2084.89
188.859	2080.7
188.935	2068.52
189.011	2075.23
189.086	2069.05
189.162	2059.63
189.238	2056.73
189.314	2057.16
189.39	2049.45
189.465	2045.12
189.541	2064.39
189.617	2050.5
189.693	2046.22
189.768	2046.56
189.844	2069.87
189.92	2059.98
189.996	2066.64
190.071	2077.58
190.147	2077.87
190.223	2088.43
190.298	2074.35
190.374	2064.41
190.45	2072.11
190.526	2083.1
190.601	2076.77
190.677	2080.05
190.753	2107.61
190.828	2112.31
190.904	2125.44
190.98	2141.24
191.055	2151.09
191.131	2143.28
191.207	2165.54
191.282	2174.01
191.358	2166.4
191.433	2154.98
191.509	2171.76
191.585	2169.48
191.66	2170.62
191.736	2176.57
191.811	2166.67
191.887	2184.75
191.963	2207.64
192.038	2214.68
192.114	2213.53
192.189	2218.62
192.265	2213.73
192.34	2191.97
192.416	2191.55
192.491	2186.74
192.567	2189.26
192.642	2191.88
192.718	2188.79
192.793	2176.32
192.869	2173.66
192.944	2175.37
193.02	2182.84
193.095	2185.13
193.171	2192.4
193.246	2192.69
193.322	2188.88
193.397	2190.03
193.473	2177.08
193.548	2158.52
193.624	2165.81
193.699	2165.71
193.775	2181.13
193.85	2182.22
193.925	2194.83
194.001	2193.64
194.076	2188.32
194.152	2178.75
194.227	2170.9
194.302	2161.77
194.378	2166.15
194.453	2162.67
194.529	2174.66
194.604	2157.01
194.679	2148.78
194.755	2130.19
194.83	2141.14
194.905	2139.85
194.981	2144.42
195.056	2136.86
195.131	2141.95
195.207	2137.28
195.282	2127.53
195.357	2106.88
195.433	2121.48
195.508	2106.49
195.583	2113.34
195.659	2125.81
195.734	2132.52
195.809	2127.62
195.884	2139.79
195.96	2139.79
196.035	2156.4
196.11	2155.16
196.185	2169.05
196.261	2175.38
196.336	2204.4
196.411	2190.64
196.486	2194.92
196.561	2193.26
196.637	2200.58
196.712	2216.14
196.787	2219.43
196.862	2232.7
196.937	2244.78
197.013	2250.92
197.088	2263.44
197.163	2282.95
197.238	2303.48
197.313	2304.05
197.388	2322.37
197.464	2348.13
197.539	2357.41
197.614	2347.94
197.689	2360.65
197.764	2377.36
197.839	2398.21
197.914	2391.59
197.989	2412.35
198.065	2427.15
198.14	2476.03
198.215	2503.59
198.29	2517.79
198.365	2532.41
198.44	2543.93
198.515	2573.93
198.59	2590.89
198.665	2614.37
198.74	2626.04
198.815	2624.99
198.89	2647.47
198.965	2674.87
199.04	2672.77
199.115	2688.01
199.19	2730.16
199.265	2730.26
199.34	2739.26
199.415	2772.44
199.49	2797.02
199.565	2810.07
199.64	2834.95
199.715	2831.23
199.79	2841.66
199.865	2846.81
199.94	2843.57
200.015	2876.37
200.09	2878.75
200.165	2885.23
200.24	2892.62
200.315	2929.88
200.39	2946.8
200.464	2954.14
200.539	2955.67
200.614	2969.39
200.689	2992.32
200.764	3000.09
200.839	3017.82
200.914	3024.87
200.989	3011.09
201.063	3022.67
201.138	3005.81
201.213	3004.62
201.288	2987.21
201.363	2990.12
201.438	2990.08
201.512	3007.23
201.587	2986.97
201.662	2988.11
201.737	3000.22
201.812	3006.04
201.886	2976.17
201.961	2983.99
202.036	2972.27
202.111	2969.55
202.186	2945.78
202.26	2930.9
202.335	2910.21
202.41	2910.5
202.485	2894.2
202.559	2880.9
202.634	2859.12
202.709	2871.65
202.784	2858.68
202.858	2862.97
202.933	2850.44
203.008	2852.72
203.082	2840.81
203.157	2850.01
203.232	2821.24
203.306	2809.74
203.381	2790.82
203.456	2778.62
203.53	2770.94
203.605	2767.03
203.68	2760.79
203.754	2772.84
203.829	2779.46
203.904	2781.51
203.978	2788.23
204.053	2816.55
204.127	2827.94
204.202	2856.26
204.277	2865.41
204.351	2890.44
204.426	2916.19
204.5	2941.51
204.575	2942.99
204.65	2993.89
204.724	3026.29
204.799	3080.5
204.873	3123.78
204.948	3177.83
205.022	3220.76
205.097	3267.99
205.171	3339.52
205.246	3411.2
205.32	3474.62
205.395	3540.48
205.469	3602.15
205.544	3683.95
205.618	3742.85
205.693	3841.63
205.767	3917.91
205.842	4029.4
205.916	4116.74
205.991	4203.25
206.065	4313.65
206.14	4440.37
206.214	4545.42
206.289	4656.72
206.363	4783.73
206.438	4909.95
206.512	5036.55
206.586	5181.84
206.661	5317.44
206.735	5433.55
206.81	5562.97
206.884	5724.55
206.958	5855.12
207.033	6017.49
207.107	6169.69
207.181	6356.69
207.256	6500.67
207.33	6669.34
207.405	6841.15
207.479	7021.42
207.553	7193.44
207.628	7346.92
207.702	7520.33
207.776	7681.87
207.851	7856.08
207.925	8045.49
207.999	8218.58
208.073	8391.47
208.148	8576.59
208.222	8750.95
208.296	8967.7
208.371	9179.15
208.445	9370.87
208.519	9589.64
208.593	9795.59
208.668	9991.81
208.742	10184.07
208.816	10379.53
208.89	10590.69
208.965	10783.95
209.039	10981.22
209.113	11191.78
209.187	11397.67
209.261	11587.29
209.336	11805.6
209.41	12012.88
209.484	12212.38
209.558	12425.18
209.632	12634.94
209.707	12827.94
209.781	13038.24
209.855	13237.9
209.929	13435.34
210.003	13635.82
210.077	13825.89
210.151	14058.71
210.226	14273.41
210.3	14486.95
210.374	14696.15
210.448	14884.72
210.522	15078.45
210.596	15281.52
210.67	15471.39
210.744	15708.1
210.818	15923.65
210.892	16120.35
210.966	16297.43
211.041	16487.19
211.115	16669.42
211.189	16867.03
211.263	17068.05
211.337	17249.55
211.411	17426.33
211.485	17601.66
211.559	17778.53
211.633	17948.22
211.707	18079.64
211.781	18254.62
211.855	18387.92
211.929	18545.55
212.003	18687.91
212.077	18859.03
212.151	19028.52
212.225	19195.55
212.299	19332.03
212.373	19478.92
212.447	19623.34
212.52	19794.91
212.594	19938.81
212.668	20085.41
212.742	20214.76
212.816	20347.82
212.89	20477.41
212.964	20623.1
213.038	20760.22
213.112	20904.47
213.186	21050.31
213.26	21158.61
213.333	21245.07
213.407	21379.74
213.481	21497.82
213.555	21633.5
213.629	21749.62
213.703	21852.44
213.777	21979.8
213.85	22079.97
213.924	22228.61
213.998	22354.15
214.072	22470.53
214.146	22574.08
214.219	22676.63
214.293	22781
214.367	22891.13
214.441	23014.03
214.515	23109.64
214.588	23186.36
214.662	23255.26
214.736	23322.28
214.81	23436.08
214.883	23535.02
214.957	23615.12
215.031	23700.32
215.105	23772.75
215.178	23832.75
215.252	23904.51
215.326	23957.47
215.4	24011.97
215.473	24044.57
215.547	24088.71
215.621	24147.22
215.694	24221.56
215.768	24279.49
215.842	24331.83
215.915	24389.38
215.989	24435.07
216.063	24482.97
216.136	24543.95
216.21	24610.81
216.284	24693.16
216.357	24751.64
216.431	24806.3
216.504	24871.44
216.578	24954.29
216.652	25019.76
216.725	25080.46
216.799	25144.3
216.873	25197.09
216.946	25263.72
217.02	25298.95
217.093	25346.04
217.167	25378.47
217.24	25414.67
217.314	25463.6
217.387	25515.24
217.461	25551
217.535	25599.89
217.608	25635.6
217.682	25680.49
217.755	25718.19
217.829	25744.01
217.902	25789.91
217.976	25826.6
218.049	25853.1
218.123	25872.65
218.196	25923.82
218.27	25960.51
218.343	25982.33
218.417	26021.04
218.49	26055.65
218.563	26110.78
218.637	26156.98
218.71	26204.87
218.784	26241.08
218.857	26274.4
218.931	26302.78
219.004	26331.94
219.077	26364.1
219.151	26399.1
219.224	26428.12
219.298	26457.96
219.371	26506.53
219.444	26512.33
219.518	26540.38
219.591	26569.88
219.665	26616.63
219.738	26617.4
219.811	26619.23
219.885	26645.4
219.958	26663.95
220.031	26682.78
220.105	26708.37
220.178	26722.96
220.251	26733.78
220.325	26749.47
220.398	26767.82
220.471	26788.1
220.544	26819.78
220.618	26824.85
220.691	26837.36
220.764	26851.61
220.838	26861.36
220.911	26852.67
220.984	26883.67
221.057	26894.93
221.131	26901.49
221.204	26882.95
221.277	26919.02
221.35	26971.48
221.424	26977.9
221.497	26977.27
221.57	26983.11
221.643	26980.07
221.716	26980.12
221.79	26975.68
221.863	26976.11
221.936	26974.42
222.009	26968.05
222.082	26955.49
222.155	26952.88
222.229	26971.09
222.302	26976.35
222.375	26969.5
222.448	26975.29
222.521	26964.09
222.594	26962.35
222.667	26946.99
222.74	26951.1
222.814	26924.77
222.887	26899.7
222.96	26901.25
223.033	26906.75
223.106	26902.79
223.179	26900.67
223.252	26900.23
223.325	26894.25
223.398	26892.02
223.471	26880.19
223.544	26871.84
223.617	26869.38
223.69	26857.54
223.763	26820.79
223.837	26799.5
223.91	26798.05
223.983	26763.71
224.056	26740.2
224.129	26722.96
224.202	26721.27
224.275	26696.74
224.348	26673.95
224.42	26638.31
224.493	26608.71
224.566	26582.53
224.639	26572.2
224.712	26549.07
224.785	26523.43
224.858	26489.92
224.931	26454.33
225.004	26417.69
225.077	26408.03
225.15	26357.67
225.223	26338.41
225.296	26350.72
225.369	26317.31
225.442	26290.08
225.514	26281.54
225.587	26263.96
225.66	26249.33
225.733	26225.97
225.806	26198.35
225.879	26175.08
225.952	26150.66
226.025	26132.46
226.097	26132.36
226.17	26094.41
226.243	26034.56
226.316	26004.92
226.389	25985.13
226.461	25975.04
226.534	25948.49
226.607	25912.34
226.68	25904.08
226.753	25867.25
226.825	25807.73
226.898	25785.72
226.971	25745.9
227.044	25711.63
227.117	25671.96
227.189	25639.81
227.262	25619.34
227.335	25600.52
227.407	25561.67
227.48	25532.04
227.553	25498.74
227.626	25455
227.698	25408.97
227.771	25388.94
227.844	25341.02
227.916	25315.69
227.989	25252.42
228.062	25215.65
228.134	25195
228.207	25166.96
228.28	25125.56
228.352	25091.69
228.425	25052.27
228.498	25033.01
228.57	24991.18
228.643	24977.38
228.716	24938.78
228.788	24893.71
228.861	24851.1
228.934	24833.68
229.006	24799.38
229.079	24756.2
229.151	24716.63
229.224	24677.56
229.296	24647.94
229.369	24658.84
229.442	24638.48
229.514	24604.96
229.587	24593.19
229.659	24544.85
229.732	24509.96
229.804	24488.16
229.877	24475.18
229.949	24471.61
230.022	24456.22
230.094	24424.34
230.167	24397.23
230.239	24354.68
230.312	24316.62
230.384	24303.94
230.457	24269.21
230.529	24244.56
230.602	24226.03
230.674	24188.99
230.747	24177.27
230.819	24164.78
230.892	24095.36
230.964	24059.14
231.037	24032.9
231.109	24000.64
231.181	23972.66
231.254	23925.64
231.326	23895.4
231.399	23864.24
231.471	23806.65
231.544	23745.06
231.616	23717.43
231.688	23679.81
231.761	23642.58
231.833	23603.57
231.905	23542.42
231.978	23515.55
232.05	23475.96
232.122	23433.81
232.195	23404.69
232.267	23373.87
232.339	23328.93
232.412	23305.69
232.484	23261.47
232.556	23229.5
232.629	23209.34
232.701	23182.43
232.773	23145.36
232.846	23107.22
232.918	23066.47
232.99	23034.45
233.062	23013
233.135	22984.98
233.207	22925.29
233.279	22896.6
233.351	22873.7
233.424	22835.91
233.496	22783.79
233.568	22764.84
233.64	22722.36
233.713	22675.31
233.785	22627.24
233.857	22588.48
233.929	22530.77
234.001	22514.96
234.074	22480.49
234.146	22424.08
234.218	22388.16
234.29	22364.59
234.362	22319.37
234.434	22262.54
234.507	22213.94
234.579	22151.08
234.651	22117.34
234.723	22094.44
234.795	22059.49
234.867	22014.52
234.939	21994.75
235.012	21957.44
235.084	21903.21
235.156	21874.1
235.228	21833.17
235.3	21795.14
235.372	21756.1
235.444	21737.73
235.516	21666.87
235.588	21628.46
235.66	21591.92
235.732	21531.33
235.804	21543.19
235.876	21515
235.948	21495.86
236.02	21458.89
236.092	21424.29
236.164	21375.7
236.236	21325.48
236.308	21279.21
236.38	21243.64
236.452	21190.19
236.524	21157.37
236.596	21140.31
236.668	21106.81
236.74	21066.9
236.812	21037.84
236.884	21006.85
236.956	20965.4
237.028	20922.85
237.1	20874.89
237.172	20846.36
237.244	20832.34
237.316	20740.95
237.388	20689
237.46	20634.87
237.532	20614.1
237.604	20569.72
237.675	20545.96
237.747	20517.24
237.819	20464.8
237.891	20412.18
237.963	20373
238.035	20322.06
238.107	20248.32
238.178	20214.54
238.25	20173.43
238.322	20150.88
238.394	20093.96
238.466	20039.02
238.538	20003.41
238.609	19981.92
238.681	19914.55
238.753	19854.36
238.825	19819.95
238.897	19786.6
238.968	19769.25
239.04	19708.19
239.112	19690.31
239.184	19628.73
239.255	19593.45
239.327	19566.03
239.399	19534.23
239.471	19501.55
239.542	19468.69
239.614	19447.58
239.686	19383
239.758	19351.54
239.829	19297.95
239.901	19269.13
239.973	19233.13
240.044	19209.71
240.116	19168.41
240.188	19133.43
240.259	19100.13
240.331	19047.12
240.403	19008.81
240.474	18939.37
240.546	18899.56
240.618	18842.27
240.689	18799.71
240.761	18750.46
240.833	18721.6
240.904	18681.7
240.976	18637.31
241.048	18599
241.119	18565.37
241.191	18531.2
241.262	18502.77
241.334	18455.01
241.405	18409.86
241.477	18379.55
241.549	18335.98
241.62	18294.83
241.692	18270.11
241.763	18249.1
241.835	18212.81
241.906	18176.33
241.978	18134.84
242.049	18114.79
242.121	18091.03
242.192	18069.44
242.264	18018.16
242.335	17963.71
242.407	17937.06
242.478	17892.77
242.55	17845.2
242.621	17791.71
242.693	17745.98
242.764	17703.91
242.836	17670.32
242.907	17647.91
242.979	17615.52
243.05	17570.9
243.122	17537.36
243.193	17489.02
243.264	17428.1
243.336	17390.46
243.407	17361.36
243.479	17339.52
243.55	17297.12
243.622	17254.03
243.693	17212.87
243.764	17197.98
243.836	17155.38
243.907	17111.33
243.978	17072.87
244.05	17059.33
244.121	17012.48
244.192	16985.97
244.264	16930.02
244.335	16893.39
244.407	16836.18
244.478	16800.38
244.549	16763.31
244.62	16716.81
244.692	16680.18
244.763	16654.97
244.834	16613.95
244.906	16571.69
244.977	16538.91
245.048	16516.07
245.119	16480.74
245.191	16441.37
245.262	16384.93
245.333	16363.43
245.405	16325.69
245.476	16295.13
245.547	16255.28
245.618	16229.54
245.689	16201.15
245.761	16176.47
245.832	16141.05
245.903	16113.91
245.974	16067.88
246.045	16033.95
246.117	16011.01
246.188	15964.16
246.259	15917.11
246.33	15889.11
246.401	15848.09
246.473	15805.97
246.544	15769.77
246.615	15743.16
246.686	15700.22
246.757	15677.71
246.828	15640.06
246.899	15623.24
246.97	15578.94
247.042	15534.36
247.113	15509.48
247.184	15497.1
247.255	15454.73
247.326	15420.6
247.397	15393.71
247.468	15374.04
247.539	15344.3
247.61	15303.23
247.681	15286.84
247.752	15267.85
247.823	15226.59
247.894	15201.81
247.965	15157.22
248.037	15113.26
248.108	15066.41
248.179	15043.9
248.25	15006.2
248.321	14979.5
248.392	14936.84
248.463	14932.41
248.534	14901.75
248.605	14878.13
248.675	14835.13
248.746	14816.43
248.817	14796.96
248.888	14767.94
248.959	14720.7
249.03	14694.38
249.101	14667
249.172	14632.96
249.243	14579.46
249.314	14565.53
249.385	14533.47
249.456	14511.54
249.527	14475.24
249.598	14452.58
249.669	14414.59
249.739	14402.83
249.81	14385.38
249.881	14342.62
249.952	14304.64
250.023	14274.41
250.094	14231.12
250.165	14194.78
250.235	14162.67
250.306	14127.68
250.377	14089.35
250.448	14066.31
250.519	14016.9
250.59	14001.23
250.66	13977.03
250.731	13976.65
250.802	13953.89
250.873	13937.12
250.944	13918.94
251.014	13893.49
251.085	13895.27
251.156	13878.4
251.227	13864.71
251.297	13847.6
251.368	13830.63
251.439	13818.43
251.51	13810.43
251.58	13775.82
251.651	13751.38
251.722	13736.29
251.792	13701.68
251.863	13674.15
251.934	13665.57
252.005	13675.5
252.075	13648.41
252.146	13636.07
252.217	13614.28
252.287	13593.89
252.358	13562.41
252.429	13558.45
252.499	13525.34
252.57	13496.08
252.641	13482
252.711	13451.82
252.782	13410.56
252.852	13410.32
252.923	13377.63
252.994	13353.09
253.064	13344.23
253.135	13306.24
253.205	13286.28
253.276	13276.3
253.347	13268.69
253.417	13242.03
253.488	13214.36
253.558	13186.88
253.629	13157.81
253.699	13138.09
253.77	13121.27
253.841	13093.02
253.911	13068.19
253.982	13049.59
254.052	13034.55
254.123	13012.76
254.193	12992.17
254.264	13000.37
254.334	12970.48
254.405	12945.51
254.475	12915.33
254.546	12895.23
254.616	12893.01
254.687	12868.86
254.757	12854.02
254.827	12832.81
254.898	12808.41
254.968	12779.15
255.039	12750.47
255.109	12736.01
255.18	12709.93
255.25	12670.35
255.321	12659.36
255.391	12623.02
255.461	12629.28
255.532	12587.73
255.602	12560.35
255.673	12516.29
255.743	12487.13
255.813	12439.6
255.884	12428.27
255.954	12407.3
256.024	12406.43
256.095	12379.78
256.165	12347.29
256.235	12323.04
256.306	12291.85
256.376	12284.24
256.446	12277.78
256.517	12269.44
256.587	12254.11
256.657	12234.25
256.728	12217.33
256.798	12197.76
256.868	12176.17
256.938	12147
257.009	12134.04
257.079	12123.72
257.149	12133.51
257.219	12092.73
257.29	12078.22
257.36	12041.39
257.43	12040.24
257.5	11993.58
257.571	11970.1
257.641	11956.17
257.711	11931.16
257.781	11923.2
257.852	11906.09
257.922	11864.06
257.992	11842.76
258.062	11824.92
258.132	11815.14
258.202	11785.4
258.273	11771.37
258.343	11774.56
258.413	11743.85
258.483	11727.71
258.553	11695.36
258.623	11660.13
258.693	11648.37
258.764	11647.65
258.834	11649.77
258.904	11622.68
258.974	11596.8
259.044	11580.7
259.114	11569.47
259.184	11553.23
259.254	11532.17
259.324	11490.53
259.394	11484.02
259.464	11479.87
259.535	11462.28
259.605	11438.47
259.675	11418.23
259.745	11399.48
259.815	11363.91
259.885	11342.27
259.955	11349.5
260.025	11324.88
260.095	11315.05
260.165	11305.02
260.235	11304.88
260.305	11269.36
260.375	11242.8
260.445	11249.07
260.515	11240.44
260.585	11238.23
260.655	11223.67
260.725	11216.78
260.795	11213.21
260.865	11220.35
260.934	11190.95
261.004	11175.77
261.074	11153.98
261.144	11152.44
261.214	11151.96
261.284	11130.37
261.354	11126.76
261.424	11098.85
261.494	11109.84
261.564	11085.55
261.634	11077.41
261.703	11036.88
261.773	11031.05
261.843	11023.14
