Data from 20250703_urea_0.1M_MAYP1162681_07-51-04-766.txt Node
Date: Fri Jul 04 07:51:04 BST 2025
User: adleo
Spectrometer: MAYP116268
Trigger mode: 0
Integration Time (sec): 1.000000E0
Scans to average: 1
Electric dark correction enabled: true
Nonlinearity correction enabled: true
Boxcar width: 10
XAxis mode: Wavelengths
Number of Pixels in Spectrum: 2068
>>>>>Begin Spectral Data<<<<<
179.565	1229.7
179.642	1285.32
179.718	1336.68
179.795	1379.43
179.871	1412.41
179.948	1428.68
180.024	1448.13
180.101	1472.58
180.177	1488.78
180.254	1510.85
180.33	1533.09
180.407	1589.88
180.483	1686.89
180.56	1780.3
180.636	1867.9
180.712	1855.02
180.789	1863.91
180.865	1877.12
180.942	1887.57
181.018	1894.89
181.095	1907.78
181.171	1910.2
181.248	1911.35
181.324	1924.33
181.4	1929.28
181.477	1941.02
181.553	1957.75
181.63	1981.2
181.706	1995.8
181.782	2002.02
181.859	2001.26
181.935	2008.25
182.011	2003.55
182.088	2018.29
182.164	2037.56
182.24	2049.97
182.317	2065.09
182.393	2065.47
182.469	2079.4
182.546	2091.82
182.622	2100.14
182.698	2097.85
182.775	2112.27
182.851	2126.68
182.927	2119.11
183.003	2115.31
183.08	2105.85
183.156	2111.65
183.232	2104.99
183.308	2092.62
183.385	2103.8
183.461	2123.54
183.537	2124.78
183.613	2139.81
183.69	2133.67
183.766	2121.92
183.842	2129.62
183.918	2133.05
183.995	2144.28
184.071	2148.94
184.147	2142.99
184.223	2129.3
184.299	2142.19
184.375	2134.3
184.452	2143.81
184.528	2191.92
184.604	2200.71
184.68	2217.93
184.756	2227.74
184.832	2236.92
184.908	2242.01
184.985	2240.15
185.061	2223.03
185.137	2232.88
185.213	2219.94
185.289	2220.22
185.365	2213.04
185.441	2211.56
185.517	2224.56
185.593	2220.23
185.669	2220.99
185.745	2233.27
185.822	2252.81
185.898	2244.01
185.974	2251.67
186.05	2240.63
186.126	2206.85
186.202	2202.28
186.278	2199.71
186.354	2186.82
186.43	2192.91
186.506	2192.15
186.582	2190.34
186.658	2198.62
186.734	2174.64
186.81	2178.16
186.886	2182.11
186.962	2194.34
187.038	2190.77
187.114	2179.96
187.19	2189.38
187.266	2172.4
187.341	2171.83
187.417	2165.12
187.493	2165.84
187.569	2167.5
187.645	2162.13
187.721	2152.47
187.797	2158.17
187.873	2156.32
187.949	2153.65
188.025	2145.94
188.101	2148.56
188.176	2153.89
188.252	2147.47
188.328	2157.5
188.404	2159.92
188.48	2154.79
188.556	2149.6
188.632	2150.03
188.707	2152.22
188.783	2146.41
188.859	2143.75
188.935	2135.95
189.011	2142.13
189.086	2135
189.162	2126.15
189.238	2124.58
189.314	2123.01
189.39	2118.35
189.465	2114.35
189.541	2128.34
189.617	2113.5
189.693	2110.41
189.768	2117.73
189.844	2144.43
189.92	2138.96
189.996	2144.29
190.071	2156.66
190.147	2155.28
190.223	2162.7
190.298	2156.47
190.374	2147.53
190.45	2159.32
190.526	2166.08
190.601	2158.66
190.677	2157.8
190.753	2187.36
190.828	2190.41
190.904	2204.63
190.98	2219.48
191.055	2227.33
191.131	2223.57
191.207	2242.98
191.282	2252.4
191.358	2238.98
191.433	2223.99
191.509	2236.4
191.585	2234.78
191.66	2234.26
191.736	2241.06
191.811	2233.45
191.887	2250.2
191.963	2274.09
192.038	2281.37
192.114	2281.23
192.189	2284.13
192.265	2284.37
192.34	2259.61
192.416	2258.19
192.491	2253.05
192.567	2256.95
192.642	2261.95
192.718	2258.81
192.793	2245.67
192.869	2241.3
192.944	2244.72
193.02	2252
193.095	2255.57
193.171	2258.81
193.246	2258.33
193.322	2257.38
193.397	2256.38
193.473	2240.91
193.548	2221.83
193.624	2228.49
193.699	2226.92
193.775	2246.39
193.85	2248.43
193.925	2258.28
194.001	2256.29
194.076	2248.43
194.152	2237.87
194.227	2231.49
194.302	2221.45
194.378	2225.5
194.453	2221.88
194.529	2234.3
194.604	2218.98
194.679	2209.56
194.755	2193.48
194.83	2208.86
194.905	2205.29
194.981	2215.52
195.056	2210.62
195.131	2215.71
195.207	2211.81
195.282	2203.58
195.357	2183.35
195.433	2195.05
195.508	2183.11
195.583	2192.29
195.659	2206.09
195.734	2212.38
195.809	2210.19
195.884	2220.6
195.96	2222.84
196.035	2238.97
196.11	2234.21
196.185	2247.96
196.261	2252.91
196.336	2280.84
196.411	2263.56
196.486	2269.41
196.561	2265.27
196.637	2271.65
196.712	2287.97
196.787	2293.07
196.862	2305.3
196.937	2315.96
197.013	2323.05
197.088	2333.04
197.163	2357.04
197.238	2374.95
197.313	2375.05
197.388	2390.37
197.464	2417.8
197.539	2426.36
197.614	2420.65
197.689	2434.89
197.764	2450.7
197.839	2470.64
197.914	2468.07
197.989	2491.83
198.065	2508.26
198.14	2557.24
198.215	2585.53
198.29	2597.3
198.365	2611.11
198.44	2622.73
198.515	2653.46
198.59	2668.89
198.665	2696.09
198.74	2708.29
198.815	2709.62
198.89	2734.35
198.965	2762.8
199.04	2763.85
199.115	2782.09
199.19	2827.07
199.265	2829.45
199.34	2840.41
199.415	2875.26
199.49	2896.41
199.565	2903.61
199.64	2923.82
199.715	2922.24
199.79	2931.44
199.865	2939.02
199.94	2936.4
200.015	2971.3
200.09	2971.82
200.165	2980.21
200.24	2988.03
200.315	3025.11
200.39	3037.27
200.464	3043.23
200.539	3050.34
200.614	3065.69
200.689	3091.25
200.764	3098.31
200.839	3117.66
200.914	3122.09
200.989	3112.17
201.063	3127.29
201.138	3113.47
201.213	3115.66
201.288	3098.54
201.363	3102.69
201.438	3101.17
201.512	3118.04
201.587	3095.2
201.662	3100.73
201.737	3113.65
201.812	3122.09
201.886	3089.02
201.961	3105.34
202.036	3092.28
202.111	3086.17
202.186	3054.53
202.26	3036.74
202.335	3014.61
202.41	3010.41
202.485	2992.64
202.559	2974.43
202.634	2948.11
202.709	2955.78
202.784	2938.9
202.858	2939.14
202.933	2922.74
203.008	2920.31
203.082	2902.39
203.157	2909.78
203.232	2871.57
203.306	2854.45
203.381	2828.13
203.456	2809.83
203.53	2791.03
203.605	2777.22
203.68	2758.34
203.754	2762.24
203.829	2755.57
203.904	2742.37
203.978	2740.8
204.053	2758.67
204.127	2753.72
204.202	2763.73
204.277	2763.73
204.351	2769.4
204.426	2775.4
204.5	2782.74
204.575	2762.88
204.65	2789.81
204.724	2800.49
204.799	2827.17
204.873	2842.19
204.948	2863.97
205.022	2878.03
205.097	2895.73
205.171	2940.06
205.246	2978.13
205.32	3009.82
205.395	3043.35
205.469	3069.43
205.544	3111.28
205.618	3132.56
205.693	3186.65
205.767	3217.18
205.842	3279.61
205.916	3320.45
205.991	3360.02
206.065	3414.44
206.14	3483.94
206.214	3532.71
206.289	3579.33
206.363	3646.17
206.438	3706.51
206.512	3770.15
206.586	3844.47
206.661	3908.33
206.735	3946.79
206.81	4010.96
206.884	4088.76
206.958	4140.91
207.033	4230.3
207.107	4304.37
207.181	4405.52
207.256	4470.24
207.33	4560.57
207.405	4644.32
207.479	4737.36
207.553	4819.93
207.628	4878.32
207.702	4972.31
207.776	5047.8
207.851	5131.67
207.925	5234.89
207.999	5320.77
208.073	5401.95
208.148	5495.42
208.222	5569.34
208.296	5692.14
208.371	5801.67
208.445	5899.18
208.519	6020.62
208.593	6118.5
208.668	6202.77
208.742	6299.14
208.816	6401.07
208.89	6514.15
208.965	6612.62
209.039	6715.5
209.113	6828.17
209.187	6946.42
209.261	7034.7
209.336	7142.84
209.41	7261.44
209.484	7350.94
209.558	7462.36
209.632	7578.54
209.707	7692.25
209.781	7816.67
209.855	7927.96
209.929	8038.57
210.003	8141.02
210.077	8236.74
210.151	8384.63
210.226	8521
210.3	8642.01
210.374	8756.39
210.448	8848.65
210.522	8949.84
210.596	9060.99
210.67	9165.02
210.744	9307.39
210.818	9431.78
210.892	9551.34
210.966	9638.74
211.041	9753.64
211.115	9848.27
211.189	9959.96
211.263	10066.27
211.337	10154.94
211.411	10262.42
211.485	10345.43
211.559	10456.95
211.633	10548.38
211.707	10600.42
211.781	10695.35
211.855	10753.37
211.929	10833.83
212.003	10909.04
212.077	11009.03
212.151	11107.06
212.225	11201.75
212.299	11271.35
212.373	11344.79
212.447	11432.41
212.52	11547.55
212.594	11631.85
212.668	11725.44
212.742	11793.89
212.816	11862.67
212.89	11942.38
212.964	12023.85
213.038	12111
213.112	12199.5
213.186	12300.62
213.26	12359.57
213.333	12386.42
213.407	12470.82
213.481	12554.41
213.555	12639.14
213.629	12698.24
213.703	12747.94
213.777	12821.36
213.85	12886.73
213.924	12994.56
213.998	13067.35
214.072	13130.5
214.146	13189.61
214.219	13258.83
214.293	13329.02
214.367	13406.15
214.441	13491.14
214.515	13541.13
214.588	13584.61
214.662	13615.65
214.736	13653.01
214.81	13730.77
214.883	13813.35
214.957	13867.82
215.031	13918.24
215.105	13960.28
215.178	14016.2
215.252	14075.73
215.326	14116.95
215.4	14151.47
215.473	14163.47
215.547	14199.72
215.621	14252.7
215.694	14322.93
215.768	14365.98
215.842	14403.48
215.915	14442.62
215.989	14472.75
216.063	14513.92
216.136	14566.8
216.21	14626.28
216.284	14697
216.357	14752.77
216.431	14800.69
216.504	14855.78
216.578	14928.43
216.652	14999.48
216.725	15054.09
216.799	15118.15
216.873	15164.24
216.946	15222.61
217.02	15273.32
217.093	15327.07
217.167	15348.71
217.24	15374.88
217.314	15410.74
217.387	15460.78
217.461	15505.51
217.535	15575.54
217.608	15622.97
217.682	15678.74
217.755	15734.41
217.829	15766.66
217.902	15811.34
217.976	15857.56
218.049	15897.76
218.123	15937.57
218.196	15982.3
218.27	16017.05
218.343	16050.5
218.417	16111.09
218.49	16158.76
218.563	16221.61
218.637	16268.94
218.71	16348.56
218.784	16398.15
218.857	16461.58
218.931	16513.73
219.004	16563.9
219.077	16606.94
219.151	16661.26
219.224	16703.14
219.298	16752.4
219.371	16818.47
219.444	16857.08
219.518	16906.62
219.591	16952.7
219.665	17025.95
219.738	17075.83
219.811	17116.27
219.885	17171.45
219.958	17218.63
220.031	17265.04
220.105	17314.92
220.178	17359.21
220.251	17389.09
220.325	17451.79
220.398	17502.39
220.471	17554.05
220.544	17614.44
220.618	17653.14
220.691	17698.77
220.764	17737.95
220.838	17788.36
220.911	17821.9
220.984	17888.17
221.057	17936.5
221.131	17988.5
221.204	17994.72
221.277	18052.02
221.35	18136.11
221.424	18174.33
221.497	18215.63
221.57	18260.44
221.643	18307.62
221.716	18360.29
221.79	18390.17
221.863	18417.93
221.936	18450.02
222.009	18486.79
222.082	18524.91
222.155	18563.03
222.229	18625.34
222.302	18682.73
222.375	18716.08
222.448	18756.99
222.521	18791.02
222.594	18827.5
222.667	18846.19
222.74	18901.95
222.814	18928.26
222.887	18943.68
222.96	18988.4
223.033	19030.23
223.106	19055.1
223.179	19090.47
223.252	19118.08
223.325	19164.15
223.398	19195.62
223.471	19228.77
223.544	19258.65
223.617	19285.68
223.69	19317.25
223.763	19327.85
223.837	19346.69
223.91	19382.55
223.983	19399.08
224.056	19409.68
224.129	19436.57
224.202	19475.99
224.275	19480.23
224.348	19499.31
224.42	19514.15
224.493	19516.47
224.566	19529.77
224.639	19573.43
224.712	19588.51
224.785	19608.99
224.858	19623.98
224.931	19647.01
225.004	19660.55
225.077	19689.47
225.15	19684.02
225.223	19699.16
225.296	19739.92
225.369	19748.45
225.442	19745.76
225.514	19765.47
225.587	19791.68
225.66	19816.45
225.733	19847.73
225.806	19879.44
225.879	19895.29
225.952	19897.7
226.025	19918.62
226.097	19949.02
226.17	19953.31
226.243	19940.83
226.316	19945.6
226.389	19951
226.461	19964.06
226.534	19981.79
226.607	19984.69
226.68	20021.6
226.753	20033.17
226.825	20018.08
226.898	20044.92
226.971	20063.91
227.044	20081.6
227.117	20094.71
227.189	20104.01
227.262	20115.48
227.335	20124.3
227.407	20122.75
227.48	20137.64
227.553	20165.98
227.626	20162.61
227.698	20170.85
227.771	20193.45
227.844	20198.56
227.916	20217.69
227.989	20221.35
228.062	20227.04
228.134	20259.71
228.207	20266.65
228.28	20277.69
228.352	20278.9
228.425	20287.38
228.498	20303.76
228.57	20301.16
228.643	20317.02
228.716	20317.64
228.788	20305.4
228.861	20306.12
228.934	20329.35
229.006	20335.81
229.079	20322.51
229.151	20323.42
229.224	20312.82
229.296	20318.08
229.369	20358.56
229.442	20374.51
229.514	20369.5
229.587	20390.7
229.659	20376.82
229.732	20368.58
229.804	20370.99
229.877	20397.5
229.949	20405.11
230.022	20424.58
230.094	20425.45
230.167	20424.73
230.239	20422.03
230.312	20434.08
230.384	20462.75
230.457	20473.6
230.529	20479.81
230.602	20488.05
230.674	20494.94
230.747	20521.11
230.819	20536.2
230.892	20486.61
230.964	20488.49
231.037	20486.9
231.109	20467.57
231.181	20472.82
231.254	20469.4
231.326	20463.72
231.399	20452.15
231.471	20448.92
231.544	20411.96
231.616	20420
231.688	20414.65
231.761	20405.79
231.833	20387.28
231.905	20353.74
231.978	20343.28
232.05	20336.58
232.122	20330.22
232.195	20322.03
232.267	20319.91
232.339	20309.06
232.412	20329.64
232.484	20313.98
232.556	20307.28
232.629	20326.61
232.701	20319.18
232.773	20306.89
232.846	20291.47
232.918	20296.44
232.99	20279.52
233.062	20289.11
233.135	20274.51
233.207	20246.99
233.279	20238.66
233.351	20238.66
233.424	20222.7
233.496	20208.29
233.568	20217.93
233.64	20190.66
233.713	20160.68
233.785	20144.25
233.857	20121.89
233.929	20082.37
234.001	20080.97
234.074	20082.08
234.146	20041.46
234.218	20027.34
234.29	20016.78
234.362	19998.13
234.434	19961.51
234.507	19923.39
234.579	19881.17
234.651	19860.11
234.723	19862.23
234.795	19852.16
234.867	19827.87
234.939	19830.81
235.012	19803.78
235.084	19779.34
235.156	19764.07
235.228	19753.61
235.3	19720.07
235.372	19703.01
235.444	19701.18
235.516	19659.06
235.588	19633.28
235.66	19619.3
235.732	19591.16
235.804	19630.44
235.876	19628.85
235.948	19614.78
236.02	19602.29
236.092	19590.2
236.164	19563.31
236.236	19524.37
236.308	19500.08
236.38	19484.95
236.452	19441.68
236.524	19420.04
236.596	19415.32
236.668	19407.37
236.74	19381.87
236.812	19361.06
236.884	19347.66
236.956	19327.51
237.028	19285.73
237.1	19258.27
237.172	19242.32
237.244	19223.67
237.316	19152.34
237.388	19108.78
237.46	19085.55
237.532	19074.66
237.604	19037.46
237.675	19031.77
237.747	19018.09
237.819	18983.44
237.891	18944.93
237.963	18917.56
238.035	18882.48
238.107	18806.29
238.178	18795.5
238.25	18768.32
238.322	18765.33
238.394	18719.36
238.466	18681.14
238.538	18670.73
238.609	18645.34
238.681	18600.18
238.753	18563.27
238.825	18536.57
238.897	18516.24
238.968	18493.06
239.04	18459.76
239.112	18459.76
239.184	18423.91
239.255	18387.28
239.327	18356.54
239.399	18338.17
239.471	18314.37
239.542	18294.47
239.614	18295.43
239.686	18235.29
239.758	18214.71
239.829	18176.64
239.901	18165.41
239.973	18137.8
240.044	18107.34
240.116	18079.49
240.188	18053.22
240.259	18025.51
240.331	17989.42
240.403	17963.4
240.474	17915.11
240.546	17879.16
240.618	17827.06
240.689	17784.99
240.761	17757.71
240.833	17749.28
240.904	17705.67
240.976	17671.74
241.048	17645.33
241.119	17613.48
241.191	17588.13
241.262	17571.89
241.334	17533.72
241.405	17490.1
241.477	17452.47
241.549	17419.65
241.62	17389.72
241.692	17357.33
241.763	17339.6
241.835	17313.28
241.906	17274.3
241.978	17229.09
242.049	17209.14
242.121	17189.91
242.192	17172.22
242.264	17123.26
242.335	17072.46
242.407	17056.12
242.478	17014.58
242.55	16976.65
242.621	16929.37
242.693	16897.22
242.764	16851.39
242.836	16818.09
242.907	16793.36
242.979	16770.09
243.05	16750.33
243.122	16728.2
243.193	16696.59
243.264	16641.89
243.336	16604.53
243.407	16594.32
243.479	16581.21
243.55	16543.9
243.622	16515.23
243.693	16483.47
243.764	16471.66
243.836	16428.52
243.907	16391.89
243.978	16363.16
244.05	16341.43
244.121	16298.15
244.192	16271.93
244.264	16231.15
244.335	16193.36
244.407	16147.62
244.478	16117.4
244.549	16076.05
244.62	16024.81
244.692	15993.1
244.763	15973.19
244.834	15935.36
244.906	15887.74
244.977	15858.72
245.048	15846.53
245.119	15811.05
245.191	15763.96
245.262	15718.6
245.333	15706.07
245.405	15682.26
245.476	15657.1
245.547	15628.81
245.618	15617.34
245.689	15595.16
245.761	15563.35
245.832	15538
245.903	15511.53
245.974	15485.36
246.045	15456.78
246.117	15441.69
246.188	15401.3
246.259	15354.73
246.33	15323.45
246.401	15290.43
246.473	15253.36
246.544	15210.18
246.615	15184.1
246.686	15155.32
246.757	15138.35
246.828	15094.83
246.899	15072.27
246.97	15024.45
247.042	14979.77
247.113	14952.63
247.184	14931.76
247.255	14902.26
247.326	14871.74
247.397	14846.48
247.468	14814.52
247.539	14783.34
247.61	14738.6
247.681	14715.42
247.752	14704.57
247.823	14659.07
247.894	14628.21
247.965	14588.11
248.037	14551.14
248.108	14499.6
248.179	14473.24
248.25	14436.79
248.321	14414.09
248.392	14371.09
248.463	14374.56
248.534	14346.55
248.605	14328.09
248.675	14295.17
248.746	14277.72
248.817	14250.14
248.888	14222.04
248.959	14175.23
249.03	14144.09
249.101	14113.38
249.172	14078.92
249.243	14031.34
249.314	14023.77
249.385	14000.1
249.456	13984.43
249.527	13956.66
249.598	13942.68
249.669	13912.75
249.739	13893.18
249.81	13872.83
249.881	13831.09
249.952	13797.49
250.023	13766.92
250.094	13723.97
250.165	13687
250.235	13650.12
250.306	13627.7
250.377	13593.96
250.448	13586.29
250.519	13546.72
250.59	13551.15
250.66	13525.51
250.731	13507.91
250.802	13483.42
250.873	13459.32
250.944	13437.05
251.014	13406.72
251.085	13406
251.156	13385.03
251.227	13365.85
251.297	13360.35
251.368	13347.77
251.439	13329.69
251.51	13329.3
251.58	13294.98
251.651	13265.09
251.722	13254.97
251.792	13217.9
251.863	13191.63
251.934	13176.88
252.005	13187.43
252.075	13153.83
252.146	13139.32
252.217	13134.36
252.287	13119.66
252.358	13102.98
252.429	13097.96
252.499	13064.41
252.57	13037.99
252.641	13025.46
252.711	13008.25
252.782	12959.08
252.852	12957.49
252.923	12932.57
252.994	12899.4
253.064	12895.35
253.135	12867.78
253.205	12840.83
253.276	12840.11
253.347	12835.58
253.417	12804.05
253.488	12771.7
253.558	12739.17
253.629	12718.1
253.699	12698.24
253.77	12684.98
253.841	12652.69
253.911	12622.41
253.982	12609.3
254.052	12603.9
254.123	12587.37
254.193	12562.21
254.264	12583.08
254.334	12556.23
254.405	12526.68
254.475	12497.37
254.546	12466.62
254.616	12455.14
254.687	12438.03
254.757	12411.57
254.827	12386.16
254.898	12371.51
254.968	12353.39
255.039	12331.21
255.109	12320.46
255.18	12285.23
255.25	12239.96
255.321	12229.41
255.391	12195.04
255.461	12197.55
255.532	12134.64
255.602	12108.9
255.673	12069.76
255.743	12028.84
255.813	11977.07
255.884	11974.61
255.954	11965.07
256.024	11972.25
256.095	11956.49
256.165	11925.35
256.235	11917.59
256.306	11891.66
256.376	11882.84
256.446	11867.22
256.517	11850.3
256.587	11834.15
256.657	11820.51
256.728	11801.38
256.798	11785.96
256.868	11771.5
256.938	11741.85
257.009	11741.8
257.079	11728.02
257.149	11738.82
257.219	11706.72
257.29	11703.68
257.36	11660.35
257.43	11649.94
257.5	11596.15
257.571	11568.63
257.641	11557.74
257.711	11525.83
257.781	11517.3
257.852	11501.92
257.922	11464.96
257.992	11450.26
258.062	11434.93
258.132	11424.95
258.202	11410.69
258.273	11391.99
258.343	11387.6
258.413	11362.59
258.483	11349.24
258.553	11321.72
258.623	11294.92
258.693	11281.76
258.764	11278.05
258.834	11279.64
258.904	11254.63
258.974	11233.62
259.044	11215.4
259.114	11203.45
259.184	11184.37
259.254	11159.31
259.324	11120.66
259.394	11113.04
259.464	11104.47
259.535	11079.12
259.605	11054.54
259.675	11028.85
259.745	11008.76
259.815	10984.32
259.885	10966.5
259.955	10968.81
260.025	10941.82
260.095	10922.26
260.165	10909.92
260.235	10906.21
260.305	10873.59
260.375	10846.6
260.445	10855.66
260.515	10855.57
260.585	10853.3
260.655	10838.12
260.725	10833.54
260.795	10826.17
260.865	10829.59
260.934	10804.63
261.004	10795.04
261.074	10780.01
261.144	10789.41
261.214	10792.68
261.284	10768.83
261.354	10762.23
261.424	10739.19
261.494	10744.01
261.564	10724.79
261.634	10719.92
261.703	10677.23
261.773	10670.05
261.843	10669.33
261.913	10649.67
261.983	10619.65
