Data from 20250703_urea_0.1M_MAYP1162681_17-01-05-055.txt Node
Date: Thu Jul 03 17:01:05 BST 2025
User: adleo
Spectrometer: MAYP116268
Trigger mode: 0
Integration Time (sec): 1.000000E0
Scans to average: 1
Electric dark correction enabled: true
Nonlinearity correction enabled: true
Boxcar width: 10
XAxis mode: Wavelengths
Number of Pixels in Spectrum: 2068
>>>>>Begin Spectral Data<<<<<
179.565	1307.21
179.642	1366.35
179.718	1418.78
179.795	1461.73
179.871	1500.61
179.948	1522.02
180.024	1547.5
180.101	1572.58
180.177	1589.72
180.254	1614.32
180.33	1640.21
180.407	1700.51
180.483	1803.66
180.56	1902.54
180.636	1994.18
180.712	1981.33
180.789	1994.98
180.865	2008.72
180.942	2015.57
181.018	2027.88
181.095	2045.1
181.171	2051
181.248	2054.33
181.324	2068.22
181.4	2076.69
181.477	2086.54
181.553	2100.66
181.63	2122.54
181.706	2137.05
181.782	2143.95
181.859	2141.38
181.935	2145.9
182.011	2144
182.088	2163.27
182.164	2183.92
182.24	2197.48
182.317	2206.71
182.393	2201.28
182.469	2218.46
182.546	2235.54
182.622	2241.44
182.698	2234.78
182.775	2245.67
182.851	2258.66
182.927	2252.9
183.003	2248.05
183.08	2243.44
183.156	2250.76
183.232	2242.62
183.308	2233.63
183.385	2241.77
183.461	2261.42
183.537	2260.04
183.613	2277.7
183.69	2267.18
183.766	2255.89
183.842	2265.94
183.918	2272.5
183.995	2287.02
184.071	2288.16
184.147	2279.5
184.223	2268.46
184.299	2283.46
184.375	2273.61
184.452	2281.7
184.528	2333.54
184.604	2346.29
184.68	2358.24
184.756	2367.62
184.832	2377.04
184.908	2382.27
184.985	2382.94
185.061	2367.95
185.137	2381.18
185.213	2368.62
185.289	2369.28
185.365	2362.57
185.441	2359.77
185.517	2371.43
185.593	2370.38
185.669	2369.72
185.745	2381.9
185.822	2401.08
185.898	2388.37
185.974	2397.98
186.05	2390.65
186.126	2353.8
186.202	2346.37
186.278	2341.47
186.354	2333.43
186.43	2339.09
186.506	2336.19
186.582	2335.24
186.658	2343.14
186.734	2319.58
186.81	2319.39
186.886	2322.25
186.962	2332.57
187.038	2330.72
187.114	2325.95
187.19	2331.52
187.266	2317.68
187.341	2319.96
187.417	2310.16
187.493	2311.21
187.569	2313.87
187.645	2304.88
187.721	2292.17
187.797	2298.83
187.873	2305.54
187.949	2298.64
188.025	2290.5
188.101	2294.83
188.176	2302.68
188.252	2297.4
188.328	2309.67
188.404	2311.05
188.48	2307.44
188.556	2303.01
188.632	2300.53
188.707	2300.53
188.783	2296.68
188.859	2294.73
188.935	2283.07
189.011	2292.44
189.086	2288.02
189.162	2278.12
189.238	2278.21
189.314	2276.26
189.39	2269.27
189.465	2261.56
189.541	2280.36
189.617	2265.42
189.693	2259.56
189.768	2261.71
189.844	2286.94
189.92	2276.81
189.996	2280.76
190.071	2293.99
190.147	2291.42
190.223	2304.27
190.298	2293.47
190.374	2281.81
190.45	2293.03
190.526	2301.89
190.601	2294.46
190.677	2294.22
190.753	2325.94
190.828	2328.41
190.904	2345.46
190.98	2364.74
191.055	2372.83
191.131	2358.88
191.207	2382.25
191.282	2391.62
191.358	2380.53
191.433	2366.48
191.509	2380.18
191.585	2381.61
191.66	2382.33
191.736	2389.85
191.811	2377.99
191.887	2398.66
191.963	2422.75
192.038	2429.03
192.114	2429.36
192.189	2434.36
192.265	2432.27
192.34	2409.31
192.416	2410.45
192.491	2406.55
192.567	2406.4
192.642	2409.12
192.718	2412.02
192.793	2400.02
192.869	2395.93
192.944	2400.59
193.02	2407.4
193.095	2412.97
193.171	2419.59
193.246	2418.88
193.322	2416.3
193.397	2418.64
193.473	2401.73
193.548	2381.4
193.624	2390.4
193.699	2386.12
193.775	2404.31
193.85	2407.26
193.925	2414.16
194.001	2410.83
194.076	2401.83
194.152	2391.26
194.227	2382.69
194.302	2371.99
194.378	2373.18
194.453	2370.8
194.529	2382.84
194.604	2368.85
194.679	2359.85
194.755	2338.82
194.83	2352.44
194.905	2350.82
194.981	2358.25
195.056	2351.2
195.131	2359.58
195.207	2356.34
195.282	2348.97
195.357	2327.92
195.433	2341.67
195.508	2331.87
195.583	2342.1
195.659	2356.91
195.734	2365.05
195.809	2365.71
195.884	2374.8
195.96	2377.75
196.035	2395.32
196.11	2390.41
196.185	2401.65
196.261	2407.98
196.336	2440.16
196.411	2422.92
196.486	2428.06
196.561	2423.63
196.637	2432.44
196.712	2449.92
196.787	2451.82
196.862	2467.67
196.937	2477.67
197.013	2486.81
197.088	2496.81
197.163	2519.72
197.238	2540.88
197.313	2542.5
197.388	2557.36
197.464	2590.8
197.539	2600.85
197.614	2591.71
197.689	2604.52
197.764	2621.95
197.839	2642.58
197.914	2636.72
197.989	2661.87
198.065	2676.92
198.14	2729.55
198.215	2757.95
198.29	2767.19
198.365	2782.11
198.44	2792.3
198.515	2821.89
198.59	2839.15
198.665	2867.84
198.74	2878.85
198.815	2875.94
198.89	2900.39
198.965	2935.77
199.04	2930.19
199.115	2946.2
199.19	2992.2
199.265	2997.11
199.34	3007.02
199.415	3043.23
199.49	3064.25
199.565	3076.69
199.64	3101.1
199.715	3097.52
199.79	3103.77
199.865	3113.36
199.94	3113.88
200.015	3150.37
200.09	3154.61
200.165	3158.43
200.24	3166.15
200.315	3206.74
200.39	3222.81
200.464	3227.44
200.539	3226.24
200.614	3246.08
200.689	3272.23
200.764	3282.16
200.839	3300.32
200.914	3306.28
200.989	3296.16
201.063	3314.05
201.138	3294.08
201.213	3298.42
201.288	3279.58
201.363	3285.73
201.438	3287.06
201.512	3304.38
201.587	3286.39
201.662	3293.78
201.737	3309
201.812	3316.02
201.886	3281.73
201.961	3293.95
202.036	3283.17
202.111	3282.65
202.186	3251.23
202.26	3234.77
202.335	3211.96
202.41	3209.05
202.485	3196.32
202.559	3177.09
202.634	3151.43
202.709	3164.73
202.784	3145.46
202.858	3149.14
202.933	3133.16
203.008	3130.39
203.082	3113.32
203.157	3120.38
203.232	3080.24
203.306	3062.21
203.381	3037.83
203.456	3021.67
203.53	3008.73
203.605	2998.72
203.68	2984.12
203.754	2992.22
203.829	2989.74
203.904	2987.41
203.978	2991.65
204.053	3011.54
204.127	3016.88
204.202	3037.25
204.277	3039.72
204.351	3058.13
204.426	3077.7
204.5	3099.88
204.575	3097.35
204.65	3142.11
204.724	3164.6
204.799	3213.52
204.873	3252.52
204.948	3294.95
205.022	3327.72
205.097	3367.99
205.171	3431.23
205.246	3492.46
205.32	3545.71
205.395	3605.66
205.469	3655.45
205.544	3728.43
205.618	3775.96
205.693	3857.87
205.767	3920.23
205.842	4017.84
205.916	4090.45
205.991	4162.28
206.065	4256.84
206.14	4358.52
206.214	4445.35
206.289	4534.37
206.363	4646.28
206.438	4747.27
206.512	4855.15
206.586	4983.86
206.661	5103.39
206.735	5195.68
206.81	5312.94
206.884	5451.09
206.958	5559.61
207.033	5701.5
207.107	5837.39
207.181	6007.43
207.256	6133.47
207.33	6283.38
207.405	6434.74
207.479	6595.9
207.553	6742.63
207.628	6862.04
207.702	7023.05
207.776	7164.6
207.851	7312.65
207.925	7477.54
207.999	7630.08
208.073	7785.13
208.148	7944.95
208.222	8085.41
208.296	8278.74
208.371	8453.13
208.445	8621.84
208.519	8825.21
208.593	9007.49
208.668	9161.45
208.742	9324.5
208.816	9494.16
208.89	9677.68
208.965	9843.33
209.039	10018.08
209.113	10207.52
209.187	10405.03
209.261	10575.66
209.336	10769.73
209.41	10965.15
209.484	11135.16
209.558	11331.43
209.632	11516.67
209.707	11694.4
209.781	11886.07
209.855	12066.71
209.929	12255.08
210.003	12431.73
210.077	12591.52
210.151	12808.19
210.226	13018.6
210.3	13218.3
210.374	13413.67
210.448	13586.97
210.522	13761.95
210.596	13930.23
210.67	14101.74
210.744	14305.74
210.818	14487.57
210.892	14662.55
210.966	14812.9
211.041	14991.35
211.115	15138.99
211.189	15317.68
211.263	15493.66
211.337	15647.28
211.411	15823.84
211.485	15980.77
211.559	16145.42
211.633	16293.97
211.707	16395.67
211.781	16545.51
211.855	16653.9
211.929	16798.97
212.003	16912.57
212.077	17077.59
212.151	17238.41
212.225	17389.36
212.299	17521.16
212.373	17653.21
212.447	17780.97
212.52	17948.68
212.594	18075.23
212.668	18219.71
212.742	18329.73
212.816	18445.15
212.89	18575.46
212.964	18688.66
213.038	18808.31
213.112	18949.61
213.186	19086.32
213.26	19188.25
213.333	19248.24
213.407	19362.79
213.481	19467.99
213.555	19601.77
213.629	19687.55
213.703	19783.5
213.777	19890.96
213.85	19984.5
213.924	20135.79
213.998	20244.12
214.072	20334
214.146	20424.94
214.219	20522
214.293	20620.27
214.367	20733.05
214.441	20836.09
214.515	20929.01
214.588	20995.9
214.662	21044.25
214.736	21112.97
214.81	21213.8
214.883	21335.3
214.957	21424.61
215.031	21496.47
215.105	21558.5
215.178	21628.34
215.252	21698.57
215.326	21748.56
215.4	21806.2
215.473	21815.65
215.547	21860.38
215.621	21928.55
215.694	22006.35
215.768	22052.72
215.842	22114.57
215.915	22152.7
215.989	22188.04
216.063	22232.29
216.136	22298.68
216.21	22363.51
216.284	22438.19
216.357	22501.06
216.431	22542.42
216.504	22609.01
216.578	22695.12
216.652	22766.81
216.725	22825.24
216.799	22895.59
216.873	22947.95
216.946	23012.51
217.02	23066.94
217.093	23128.22
217.167	23145.49
217.24	23176.15
217.314	23221.72
217.387	23257.49
217.461	23316.08
217.535	23383.25
217.608	23422.7
217.682	23465.33
217.755	23521.12
217.829	23550.35
217.902	23605.18
217.976	23651.04
218.049	23672.31
218.123	23700.04
218.196	23748.32
218.27	23788.98
218.343	23816.42
218.417	23867.3
218.49	23892.53
218.563	23945.34
218.637	23989.09
218.71	24063.9
218.784	24118.11
218.857	24175.94
218.931	24225.38
219.004	24247.04
219.077	24291.71
219.151	24336.32
219.224	24376.94
219.298	24412.3
219.371	24465.27
219.444	24477.52
219.518	24510.32
219.591	24553.79
219.665	24609.47
219.738	24644.06
219.811	24660.12
219.885	24692.16
219.958	24738.28
220.031	24766.94
220.105	24805.24
220.178	24829.75
220.251	24848.57
220.325	24876.94
220.398	24899.33
220.471	24929
220.544	24968.08
220.618	24981.74
220.691	24996.35
220.764	25017.34
220.838	25042.48
220.911	25050.78
220.984	25098.55
221.057	25127.5
221.131	25146.66
221.204	25127.98
221.277	25153.71
221.35	25211.42
221.424	25216.39
221.497	25219.24
221.57	25241.14
221.643	25261.32
221.716	25290.8
221.79	25295.82
221.863	25309.77
221.936	25314.98
222.009	25311.5
222.082	25324.15
222.155	25332.16
222.229	25374.48
222.302	25386.4
222.375	25395.43
222.448	25415.98
222.521	25412.99
222.594	25408.94
222.667	25397.41
222.74	25426.02
222.814	25418.11
222.887	25407.73
222.96	25442.14
223.033	25459.08
223.106	25458.84
223.179	25461.3
223.252	25469.94
223.325	25477.08
223.398	25482.15
223.471	25491.61
223.544	25511.88
223.617	25515.64
223.69	25512.17
223.763	25487.84
223.837	25493.15
223.91	25494.21
223.983	25475.63
224.056	25461.54
224.129	25461.88
224.202	25480.51
224.275	25466.32
224.348	25456.96
224.42	25442.04
224.493	25405.22
224.566	25387.41
224.639	25391.61
224.712	25369.94
224.785	25351.5
224.858	25327.38
224.931	25305.71
225.004	25284.52
225.077	25271.64
225.15	25233.13
225.223	25228.98
225.296	25245
225.369	25213.73
225.442	25202.88
225.514	25179.38
225.587	25176.58
225.66	25173.83
225.733	25153.99
225.806	25129.77
225.879	25107.09
225.952	25075.06
226.025	25073.9
226.097	25075.97
226.17	25060.29
226.243	25028.35
226.316	25003.6
226.389	25002.2
226.461	24986.85
226.534	24978.5
226.607	24945.74
226.68	24954.86
226.753	24922.3
226.825	24880.84
226.898	24872.35
226.971	24838.53
227.044	24830.81
227.117	24804.66
227.189	24785.65
227.262	24772.91
227.335	24769.63
227.407	24752.89
227.48	24736.73
227.553	24720.76
227.626	24683.32
227.698	24653.7
227.771	24635.99
227.844	24600.82
227.916	24570.82
227.989	24535.79
228.062	24509.31
228.134	24522
228.207	24486.97
228.28	24466.52
228.352	24439.02
228.425	24417.46
228.498	24407.57
228.57	24379.74
228.643	24375.39
228.716	24350.36
228.788	24316.35
228.861	24286.49
228.934	24274.86
229.006	24260.68
229.079	24230.82
229.151	24205.64
229.224	24171.78
229.296	24160.4
229.369	24171.11
229.442	24160.4
229.514	24127.8
229.587	24112.94
229.659	24061.28
229.732	24044.98
229.804	24035.28
229.877	24039.09
229.949	24016.91
230.022	24002.24
230.094	23972.1
230.167	23946.63
230.239	23910.41
230.312	23890.98
230.384	23885.24
230.457	23858.9
230.529	23835.95
230.602	23816.65
230.674	23795.39
230.747	23781.06
230.819	23761.68
230.892	23699.08
230.964	23682.1
231.037	23672.94
231.109	23644.58
231.181	23629.44
231.254	23604.22
231.326	23574.12
231.399	23547.6
231.471	23521.89
231.544	23472.22
231.616	23465.42
231.688	23429.4
231.761	23395.98
231.833	23357.7
231.905	23298.19
231.978	23273.89
232.05	23234.78
232.122	23204.01
232.195	23170.69
232.267	23163.94
232.339	23134.14
232.412	23121.32
232.484	23082.98
232.556	23043.93
232.629	23036.07
232.701	23015.91
232.773	22984.86
232.846	22952.37
232.918	22918.66
232.99	22897.88
233.062	22882.88
233.135	22855.59
233.207	22815.29
233.279	22792.63
233.351	22770.74
233.424	22741.19
233.496	22701.22
233.568	22695.58
233.64	22642.84
233.713	22607.5
233.785	22563.92
233.857	22537.01
233.929	22491.75
234.001	22469.62
234.074	22456.74
234.146	22408.58
234.218	22370.54
234.29	22331.98
234.362	22294.09
234.434	22240.38
234.507	22182.97
234.579	22129.12
234.651	22086.65
234.723	22070.65
234.795	22042.98
234.867	22005.04
234.939	21996.7
235.012	21965.66
235.084	21934.66
235.156	21918.47
235.228	21884.87
235.3	21842.6
235.372	21805.91
235.444	21789.72
235.516	21735.34
235.588	21689.94
235.66	21645.98
235.732	21612.14
235.804	21641.5
235.876	21623.37
235.948	21607.9
236.02	21585.3
236.092	21552.43
236.164	21515.51
236.236	21466.78
236.308	21420.84
236.38	21393.61
236.452	21341.99
236.524	21308.83
236.596	21286.9
236.668	21253.93
236.74	21211.66
236.812	21186.6
236.884	21151.71
236.956	21111.51
237.028	21073
237.1	21036.47
237.172	21021.91
237.244	21000.51
237.316	20920.65
237.388	20857.7
237.46	20804.69
237.532	20771.92
237.604	20731.1
237.675	20706.23
237.747	20679.29
237.819	20634.23
237.891	20596.3
237.963	20543.82
238.035	20495.05
238.107	20408.06
238.178	20384.59
238.25	20347.96
238.322	20330.61
238.394	20274.61
238.466	20238.47
238.538	20206.61
238.609	20174.28
238.681	20111.14
238.753	20057.02
238.825	20020.59
238.897	19994.23
238.968	19980.01
239.04	19933.51
239.112	19919.24
239.184	19870.43
239.255	19821.66
239.327	19784.74
239.399	19750.67
239.471	19728.84
239.542	19705.57
239.614	19690.82
239.686	19621.91
239.758	19601.57
239.829	19546.83
239.901	19516.23
239.973	19474.73
240.044	19441.15
240.116	19398.55
240.188	19364.57
240.259	19326.02
240.331	19279.76
240.403	19249.83
240.474	19189.4
240.546	19147.38
240.618	19089.89
240.689	19050.76
240.761	19013.85
240.833	19003.39
240.904	18956.98
240.976	18916.26
241.048	18871.78
241.119	18845.52
241.191	18818.2
241.262	18791.79
241.334	18744.95
241.405	18718.01
241.477	18675.7
241.549	18632.47
241.62	18595.41
241.692	18563.37
241.763	18542.69
241.835	18501.93
241.906	18461.69
241.978	18407.52
242.049	18376.2
242.121	18353.88
242.192	18318.42
242.264	18272.06
242.335	18205.02
242.407	18184.49
242.478	18137.17
242.55	18101.56
242.621	18058.04
242.693	18017.27
242.764	17968.99
242.836	17934.09
242.907	17894.87
242.979	17863.11
243.05	17834.72
243.122	17805.52
243.193	17762.77
243.264	17692.37
243.336	17659.5
243.407	17638.54
243.479	17627.16
243.55	17594.39
243.622	17558.06
243.693	17522.39
243.764	17502.78
243.836	17469.14
243.907	17415.36
243.978	17382.68
244.05	17357.33
244.121	17299.21
244.192	17276.94
244.264	17225.52
244.335	17188.8
244.407	17136.12
244.478	17111.35
244.549	17065.13
244.62	17014.82
244.692	16976.07
244.763	16952.07
244.834	16905.61
244.906	16856.21
244.977	16822.72
245.048	16808.11
245.119	16761.56
245.191	16727.29
245.262	16667.33
245.333	16654.8
245.405	16629.93
245.476	16607.76
245.547	16575.57
245.618	16549.25
245.689	16509.3
245.761	16483.61
245.832	16448.43
245.903	16425.68
245.974	16388.08
246.045	16363.31
246.117	16344.08
246.188	16297.04
246.259	16249.95
246.33	16218.18
246.401	16187.39
246.473	16130.08
246.544	16083.95
246.615	16061.11
246.686	16025.88
246.757	16011.56
246.828	15954.11
246.899	15931.89
246.97	15878.53
247.042	15833.51
247.113	15812.83
247.184	15803.44
247.255	15763
247.326	15737.84
247.397	15705.11
247.468	15664.81
247.539	15630.93
247.61	15586.25
247.681	15573.38
247.752	15558.92
247.823	15512.93
247.894	15479.91
247.965	15441.83
248.037	15399.42
248.108	15352.66
248.179	15314.68
248.25	15282.53
248.321	15262.91
248.392	15218.18
248.463	15203.04
248.534	15178.12
248.605	15157.44
248.675	15119.12
248.746	15095.21
248.817	15069.23
248.888	15039.83
248.959	14995.96
249.03	14969.16
249.101	14945.16
249.172	14909.44
249.243	14861.67
249.314	14850.58
249.385	14820.41
249.456	14806.28
249.527	14774.71
249.598	14749.88
249.669	14725.35
249.739	14707.51
249.81	14682.59
249.881	14637.61
249.952	14613.46
250.023	14580.01
250.094	14526.6
250.165	14482.11
250.235	14457.09
250.306	14424.41
250.377	14390.47
250.448	14370.7
250.519	14316.09
250.59	14306.11
250.66	14273.67
250.731	14270.68
250.802	14245.03
250.873	14222.86
250.944	14201.79
251.014	14179.76
251.085	14179.38
251.156	14155.42
251.227	14142.69
251.297	14134.11
251.368	14128.91
251.439	14116.85
251.51	14110.92
251.58	14080.8
251.651	14061.8
251.722	14037.65
251.792	13995.08
251.863	13965.39
251.934	13955.51
252.005	13971.85
252.075	13949.96
252.146	13940.32
252.217	13917.95
252.287	13900.26
252.358	13880.93
252.429	13873.99
252.499	13839.67
252.57	13817.49
252.641	13805.34
252.711	13767.55
252.782	13729.13
252.852	13719.25
252.923	13694.66
252.994	13659.23
253.064	13658.8
253.135	13621.92
253.205	13597.38
253.276	13593.04
253.347	13593.67
253.417	13553.85
253.488	13514.18
253.558	13475.18
253.629	13449.15
253.699	13429.86
253.77	13410.24
253.841	13375.44
253.911	13346.61
253.982	13327.28
254.052	13309.54
254.123	13290.02
254.193	13276.23
254.264	13283.61
254.334	13252.42
254.405	13214.19
254.475	13186.61
254.546	13158.75
254.616	13159.81
254.687	13142.31
254.757	13130.84
254.827	13101.82
254.898	13089.04
254.968	13064.36
255.039	13038.04
255.109	13025.85
255.18	12992.58
255.25	12955.8
255.321	12944.96
255.391	12910.97
255.461	12913.72
255.532	12866.96
255.602	12834.08
255.673	12780.43
255.743	12751.65
255.813	12699.83
255.884	12693.32
255.954	12676.89
256.024	12673.22
256.095	12644.01
256.165	12610.8
256.235	12589.06
256.306	12559.46
256.376	12551.7
256.446	12549.19
256.517	12541.67
256.587	12531.89
256.657	12518.39
256.728	12492.12
256.798	12473.51
256.868	12445.36
256.938	12416.63
257.009	12411.91
257.079	12402.55
257.149	12420.82
257.219	12375.37
257.29	12367.46
257.36	12317.48
257.43	12311.5
257.5	12266.19
257.571	12239.58
257.641	12225.79
257.711	12192.73
257.781	12175.04
257.852	12167.52
257.922	12123.99
257.992	12096.47
258.062	12068.07
258.132	12055.69
258.202	12037.27
258.273	12016.26
258.343	12026.04
258.413	12000.4
258.483	11972.83
258.553	11942.41
258.623	11915.47
258.693	11905.2
258.764	11905.68
258.834	11910.84
258.904	11884.67
258.974	11858.49
259.044	11835.79
259.114	11822.06
259.184	11807.6
259.254	11788.22
259.324	11748.94
259.394	11738.09
259.464	11739.01
259.535	11716.5
259.605	11685.99
259.675	11663.77
259.745	11651.82
259.815	11615.47
259.885	11590.56
259.955	11603.14
260.025	11576.24
260.095	11555.28
260.165	11548.92
260.235	11545.93
260.305	11517.64
260.375	11494.98
260.445	11509.68
260.515	11513.01
260.585	11512.09
260.655	11497.01
260.725	11501.39
260.795	11485.87
260.865	11493.39
260.934	11461.29
261.004	11452.19
261.074	11445.82
261.144	11447.8
261.214	11438.11
261.284	11420.67
261.354	11413.24
261.424	11386.59
261.494	11387.55
261.564	11367.46
261.634	11355.89
261.703	11324.56
261.773	11318.63
261.843	11312.13
