Data from 20250703_urea_0.1M_MAYP1162681_14-51-05-670.txt Node
Date: Thu Jul 03 14:51:05 BST 2025
User: adleo
Spectrometer: MAYP116268
Trigger mode: 0
Integration Time (sec): 1.000000E0
Scans to average: 1
Electric dark correction enabled: true
Nonlinearity correction enabled: true
Boxcar width: 10
XAxis mode: Wavelengths
Number of Pixels in Spectrum: 2068
>>>>>Begin Spectral Data<<<<<
179.565	1264.02
179.642	1322.42
179.718	1370
179.795	1412.42
179.871	1447.79
179.948	1466.38
180.024	1488.01
180.101	1514.28
180.177	1531.22
180.254	1554.4
180.33	1575.61
180.407	1632.83
180.483	1731.65
180.56	1829.91
180.636	1918.69
180.712	1906.28
180.789	1918.45
180.865	1929.91
180.942	1939.98
181.018	1950.97
181.095	1963.86
181.171	1968.18
181.248	1969.94
181.324	1986.83
181.4	1994.73
181.477	2005.71
181.553	2018.55
181.63	2039.9
181.706	2053.17
181.782	2059.07
181.859	2058.54
181.935	2067.06
182.011	2066.53
182.088	2084.04
182.164	2097.55
182.24	2109.39
182.317	2118.85
182.393	2114.05
182.469	2130.65
182.546	2142.45
182.622	2149.06
182.698	2143.59
182.775	2156.96
182.851	2173.51
182.927	2163
183.003	2156.01
183.08	2149.3
183.156	2158.62
183.232	2153.77
183.308	2143.12
183.385	2153.39
183.461	2170.8
183.537	2170.75
183.613	2182.6
183.69	2172.75
183.766	2165.66
183.842	2173.61
183.918	2180.74
183.995	2194.35
184.071	2196.87
184.147	2194.16
184.223	2178.32
184.299	2194.45
184.375	2183.75
184.452	2189.98
184.528	2241.9
184.604	2253.75
184.68	2266.54
184.756	2274.49
184.832	2281.63
184.908	2287.43
184.985	2285.1
185.061	2270.4
185.137	2279.2
185.213	2270.02
185.289	2272.87
185.365	2267.45
185.441	2267.83
185.517	2278.54
185.593	2277.54
185.669	2275.45
185.745	2284.16
185.822	2301.56
185.898	2290.62
185.974	2299.61
186.05	2288.42
186.126	2253.06
186.202	2246.78
186.278	2241.07
186.354	2231.79
186.43	2238.74
186.506	2234.56
186.582	2233.75
186.658	2242.5
186.734	2223.76
186.81	2224.71
186.886	2228.28
186.962	2237.79
187.038	2233.08
187.114	2225.61
187.19	2233.84
187.266	2226.14
187.341	2226.66
187.417	2220.47
187.493	2220.95
187.569	2221.62
187.645	2217.62
187.721	2206.67
187.797	2213.81
187.873	2222.33
187.949	2215.67
188.025	2207.86
188.101	2214.09
188.176	2220.18
188.252	2214.62
188.328	2222.04
188.404	2220.8
188.48	2214.47
188.556	2208.76
188.632	2210
188.707	2214.14
188.783	2209.52
188.859	2201.3
188.935	2190.92
189.011	2199.96
189.086	2193.87
189.162	2186.26
189.238	2181.69
189.314	2177.17
189.39	2171.75
189.465	2160.95
189.541	2178.84
189.617	2165.71
189.693	2159.86
189.768	2164.81
189.844	2187.56
189.92	2179.24
189.996	2188.04
190.071	2201.84
190.147	2202.36
190.223	2209.36
190.298	2200.79
190.374	2187.9
190.45	2199.93
190.526	2209.68
190.601	2203.5
190.677	2204.64
190.753	2233.59
190.828	2236.87
190.904	2253.9
190.98	2268.61
191.055	2280.13
191.131	2269.66
191.207	2287.36
191.282	2296.16
191.358	2286.69
191.433	2273.69
191.509	2287.44
191.585	2285.29
191.66	2285.1
191.736	2292.62
191.811	2284.87
191.887	2300.48
191.963	2324.89
192.038	2330.7
192.114	2330.27
192.189	2334.93
192.265	2332.51
192.34	2309.89
192.416	2311.08
192.491	2305.75
192.567	2311.13
192.642	2314.18
192.718	2318.13
192.793	2307.8
192.869	2304.23
192.944	2303.94
193.02	2309.42
193.095	2313.32
193.171	2317.89
193.246	2316.65
193.322	2312.23
193.397	2313.32
193.473	2298.66
193.548	2279.52
193.624	2284.9
193.699	2284.33
193.775	2298.52
193.85	2299.47
193.925	2307.8
194.001	2307.18
194.076	2300.23
194.152	2287.81
194.227	2281.14
194.302	2270.3
194.378	2274.15
194.453	2270.49
194.529	2285.76
194.604	2271.96
194.679	2265.82
194.755	2248.27
194.83	2260.79
194.905	2257.98
194.981	2265.93
195.056	2260.13
195.131	2266.46
195.207	2267.41
195.282	2255.85
195.357	2236.23
195.433	2252.37
195.508	2240.75
195.583	2247.89
195.659	2263.12
195.734	2269.12
195.809	2269.64
195.884	2278.82
195.96	2278.82
196.035	2294.81
196.11	2291.15
196.185	2301.52
196.261	2303.71
196.336	2335.07
196.411	2323.46
196.486	2328.79
196.561	2324.03
196.637	2333.5
196.712	2351.35
196.787	2354.45
196.862	2370.05
196.937	2382.67
197.013	2387.14
197.088	2396.14
197.163	2417.28
197.238	2435.24
197.313	2436.48
197.388	2450.1
197.464	2481.67
197.539	2494.57
197.614	2491.57
197.689	2504.57
197.764	2525.24
197.839	2546.72
197.914	2541
197.989	2564.82
198.065	2579.05
198.14	2632.62
198.215	2658.87
198.29	2668.16
198.365	2679.88
198.44	2692.97
198.515	2722.61
198.59	2739.71
198.665	2768.39
198.74	2780.16
198.815	2779.88
198.89	2802.51
198.965	2834.97
199.04	2832.06
199.115	2845.5
199.19	2887.72
199.265	2888.15
199.34	2896.78
199.415	2932.54
199.49	2954.46
199.565	2962.09
199.64	2988.31
199.715	2979.72
199.79	2988.87
199.865	2996.45
199.94	2996.45
200.015	3031.45
200.09	3034.98
200.165	3043.28
200.24	3049.62
200.315	3093.72
200.39	3109.94
200.464	3118.76
200.539	3118.52
200.614	3134.25
200.689	3161.2
200.764	3169.98
200.839	3191.05
200.914	3196.43
200.989	3185.7
201.063	3200.05
201.138	3185.33
201.213	3186.28
201.288	3171.78
201.363	3178.7
201.438	3178.46
201.512	3195.48
201.587	3174.44
201.662	3180.31
201.737	3191.71
201.812	3203.73
201.886	3167.02
201.961	3177.61
202.036	3164.12
202.111	3160.88
202.186	3134.38
202.26	3114.39
202.335	3091.54
202.41	3086.77
202.485	3073.42
202.559	3054.11
202.634	3029.41
202.709	3041.76
202.784	3025.07
202.858	3027.12
202.933	3010.52
203.008	3013.86
203.082	2998.37
203.157	3007.38
203.232	2969.92
203.306	2955.51
203.381	2930.57
203.456	2916.89
203.53	2902.53
203.605	2894.23
203.68	2884.22
203.754	2889.98
203.829	2893.18
203.904	2885.36
203.978	2894.14
204.053	2917.93
204.127	2929.99
204.202	2954.02
204.277	2959.56
204.351	2981.54
204.426	3003.2
204.5	3027.47
204.575	3027
204.65	3077
204.724	3104.26
204.799	3158.71
204.873	3200.14
204.948	3243.85
205.022	3284.12
205.097	3331.39
205.171	3400.69
205.246	3466.97
205.32	3527.1
205.395	3592.59
205.469	3651.39
205.544	3725.22
205.618	3781.41
205.693	3871.21
205.767	3939.64
205.842	4044.49
205.916	4127.1
205.991	4209.88
206.065	4309.28
206.14	4417.67
206.214	4514
206.289	4609.49
206.363	4726.35
206.438	4839.76
206.512	4961.4
206.586	5095.08
206.661	5220.22
206.735	5321.3
206.81	5449.18
206.884	5598.17
206.958	5717.84
207.033	5873.37
207.107	6023.01
207.181	6194.24
207.256	6327.52
207.33	6489.81
207.405	6653.52
207.479	6826.62
207.553	6989.05
207.628	7129.41
207.702	7301.23
207.776	7454.13
207.851	7619.14
207.925	7796.35
207.999	7958.75
208.073	8128.19
208.148	8301.28
208.222	8460.49
208.296	8666.83
208.371	8850.41
208.445	9029.86
208.519	9229.99
208.593	9424.11
208.668	9589.57
208.742	9775.39
208.816	9960.36
208.89	10155.92
208.965	10335.34
209.039	10518.9
209.113	10717
209.187	10923.68
209.261	11097.9
209.336	11302.85
209.41	11508.57
209.484	11702.6
209.558	11910.22
209.632	12104.94
209.707	12298.89
209.781	12507.06
209.855	12715.05
209.929	12921.35
210.003	13112.96
210.077	13294.06
210.151	13517.96
210.226	13740.23
210.3	13945.39
210.374	14150.64
210.448	14330.63
210.522	14514.58
210.596	14696.5
210.67	14881.65
210.744	15096.63
210.818	15312.96
210.892	15507.55
210.966	15674.28
211.041	15848.91
211.115	16010.14
211.189	16198.26
211.263	16376.74
211.337	16550.2
211.411	16716.43
211.485	16884.1
211.559	17047.29
211.633	17209.62
211.707	17337.95
211.781	17500.94
211.855	17618.15
211.929	17764.99
212.003	17907.45
212.077	18064.6
212.151	18229.18
212.225	18386.81
212.299	18530.81
212.373	18656.92
212.447	18786.22
212.52	18956.77
212.594	19100.66
212.668	19257.19
212.742	19374.63
212.816	19499.2
212.89	19623.87
212.964	19749.02
213.038	19865.55
213.112	20019.19
213.186	20164.39
213.26	20271.57
213.333	20346.03
213.407	20478.17
213.481	20594.12
213.555	20719.91
213.629	20825.31
213.703	20928.93
213.777	21050.58
213.85	21137
213.924	21289.17
213.998	21402.2
214.072	21501.73
214.146	21601.94
214.219	21703.7
214.293	21808.01
214.367	21922.44
214.441	22030.8
214.515	22113.52
214.588	22196.05
214.662	22253.51
214.736	22326.88
214.81	22411.96
214.883	22518.79
214.957	22595.1
215.031	22672.09
215.105	22737.17
215.178	22813.34
215.252	22888.8
215.326	22932.72
215.4	23003.26
215.473	23029.59
215.547	23092.08
215.621	23161.57
215.694	23232.41
215.768	23270.21
215.842	23330.49
215.915	23376.25
215.989	23421.78
216.063	23489.39
216.136	23548.08
216.21	23607.63
216.284	23676.64
216.357	23739.96
216.431	23792.77
216.504	23858.46
216.578	23947.45
216.652	24004.21
216.725	24052.93
216.799	24111.92
216.873	24155.57
216.946	24206.12
217.02	24255.41
217.093	24292.7
217.167	24313.63
217.24	24352.71
217.314	24410.59
217.387	24455.94
217.461	24503.45
217.535	24564.05
217.608	24598.88
217.682	24647.8
217.755	24711.92
217.829	24754.91
217.902	24815.07
217.976	24857.14
218.049	24879.91
218.123	24893.62
218.196	24939.35
218.27	24983.89
218.343	25001.65
218.417	25053.13
218.49	25087.58
218.563	25132.55
218.637	25184.47
218.71	25239.77
218.784	25276.45
218.857	25315.1
218.931	25347
219.004	25376.82
219.077	25401.24
219.151	25438.06
219.224	25460.7
219.298	25478.12
219.371	25506.4
219.444	25510.02
219.518	25534.68
219.591	25569.38
219.665	25626.97
219.738	25661.48
219.811	25669.87
219.885	25718.09
219.958	25749.75
220.031	25770.36
220.105	25803.09
220.178	25825.01
220.251	25848.18
220.325	25885.88
220.398	25914.7
220.471	25943.13
220.544	25972.33
220.618	25987.63
220.691	26004.53
220.764	26026.11
220.838	26049.91
220.911	26060.91
220.984	26116.96
221.057	26133.47
221.131	26169.05
221.204	26149.69
221.277	26174.79
221.35	26217.8
221.424	26208.24
221.497	26222.68
221.57	26233.44
221.643	26250.92
221.716	26257.59
221.79	26246.87
221.863	26241.65
221.936	26236.87
222.009	26238.8
222.082	26246.58
222.155	26249.91
222.229	26272.21
222.302	26282.79
222.375	26274.63
222.448	26282.4
222.521	26271.54
222.594	26267.43
222.667	26235.62
222.74	26249.67
222.814	26244.94
222.887	26239.92
222.96	26261.06
223.033	26258.41
223.106	26262.17
223.179	26259.47
223.252	26260.14
223.325	26269.17
223.398	26255.7
223.471	26252.61
223.544	26242.86
223.617	26240.01
223.69	26231.03
223.763	26207.66
223.837	26194.87
223.91	26199.55
223.983	26175.66
224.056	26153.31
224.129	26150.17
224.202	26155.57
224.275	26137.71
224.348	26111.79
224.42	26091.85
224.493	26050.91
224.566	26040.44
224.639	26031.89
224.712	26002.44
224.785	25985.4
224.858	25953.25
224.931	25936.65
225.004	25905.03
225.077	25889.35
225.15	25825.73
225.223	25809.61
225.296	25818.3
225.369	25787.12
225.442	25756.03
225.514	25743.2
225.587	25713.17
225.66	25687.21
225.733	25666.69
225.806	25643.48
225.879	25626.59
225.952	25583.05
226.025	25582.43
226.097	25571.71
226.17	25546.76
226.243	25500.23
226.316	25466.83
226.389	25456.89
226.461	25441.5
226.534	25414.04
226.607	25387.84
226.68	25411.63
226.753	25384.7
226.825	25331.36
226.898	25323.79
226.971	25300.43
227.044	25279
227.117	25261.15
227.189	25253.77
227.262	25241.32
227.335	25228.72
227.407	25187.32
227.48	25176.56
227.553	25149.34
227.626	25124.25
227.698	25098.14
227.771	25084.29
227.844	25050.71
227.916	25021.04
227.989	24975.34
228.062	24965.26
228.134	24962.08
228.207	24922.12
228.28	24892.31
228.352	24862.11
228.425	24825.1
228.498	24808.84
228.57	24774.54
228.643	24755.43
228.716	24725.66
228.788	24687.16
228.861	24646.78
228.934	24632.3
229.006	24599.69
229.079	24571.13
229.151	24521.49
229.224	24474.02
229.296	24442.57
229.369	24449.8
229.442	24436.68
229.514	24409.62
229.587	24385.16
229.659	24340.01
229.732	24315.02
229.804	24298.53
229.877	24294.43
229.949	24280.15
230.022	24265.24
230.094	24239.05
230.167	24205.82
230.239	24157.92
230.312	24124.78
230.384	24123.96
230.457	24114.36
230.529	24093.38
230.602	24070.04
230.674	24046.79
230.747	24026.92
230.819	24013.9
230.892	23948.06
230.964	23918.83
231.037	23896.36
231.109	23858.64
231.181	23826.23
231.254	23792.28
231.326	23758.43
231.399	23726.35
231.471	23684.92
231.544	23629.31
231.616	23607.08
231.688	23585.53
231.761	23546.47
231.833	23514.69
231.905	23435.94
231.978	23386.94
232.05	23344.65
232.122	23307.67
232.195	23268.41
232.267	23259.54
232.339	23221.64
232.412	23200.37
232.484	23159.63
232.556	23109.29
232.629	23109.92
232.701	23098.05
232.773	23058.9
232.846	23019.56
232.918	22989.61
232.99	22966.08
233.062	22949.25
233.135	22919.94
233.207	22871.97
233.279	22855.86
233.351	22827.71
233.424	22806.11
233.496	22770.14
233.568	22764.26
233.64	22713.69
233.713	22680.85
233.785	22637.51
233.857	22606.41
233.929	22550.78
234.001	22532.75
234.074	22517.37
234.146	22448.82
234.218	22403.98
234.29	22373.03
234.362	22329.02
234.434	22271.94
234.507	22209.61
234.579	22153.11
234.651	22107.46
234.723	22081.62
234.795	22048.69
234.867	22004.63
234.939	21980.87
235.012	21945.59
235.084	21901.52
235.156	21871.98
235.228	21821.94
235.3	21779.04
235.372	21743.71
235.444	21724.91
235.516	21656.46
235.588	21621.85
235.66	21589.22
235.732	21545.02
235.804	21562.71
235.876	21542.23
235.948	21522.75
236.02	21496.29
236.092	21453.25
236.164	21413.49
236.236	21370.01
236.308	21320.42
236.38	21292.03
236.452	21231.98
236.524	21188.6
236.596	21171.97
236.668	21145.66
236.74	21113.7
236.812	21077.89
236.884	21044.25
236.956	21012.49
237.028	20963.48
237.1	20903.18
237.172	20880.63
237.244	20858.07
237.316	20779.27
237.388	20731.84
237.46	20675.94
237.532	20650.35
237.604	20605.67
237.675	20587.36
237.747	20553.33
237.819	20500.9
237.891	20455.98
237.963	20420.13
238.035	20385.48
238.107	20299.94
238.178	20272.18
238.25	20230.78
238.322	20220.95
238.394	20164.13
238.466	20115.6
238.538	20092.57
238.609	20065.15
238.681	20003.32
238.753	19948.91
238.825	19905.82
238.897	19867.7
238.968	19852.28
239.04	19803.85
239.112	19792.67
239.184	19729.64
239.255	19694.7
239.327	19668.44
239.399	19632.15
239.471	19613.31
239.542	19576.83
239.614	19559.24
239.686	19492.64
239.758	19463.19
239.829	19405.94
239.901	19375.58
239.973	19340.79
240.044	19300.5
240.116	19268.46
240.188	19239.74
240.259	19195.31
240.331	19146.49
240.403	19111.6
240.474	19047.7
240.546	18990.35
240.618	18932.72
240.689	18889.64
240.761	18845.11
240.833	18824.82
240.904	18789.31
240.976	18747.33
241.048	18701.74
241.119	18674.23
241.191	18645.89
241.262	18628.01
241.334	18580.07
241.405	18537.9
241.477	18483.78
241.549	18445.61
241.62	18405.23
241.692	18370.39
241.763	18355.07
241.835	18317.72
241.906	18276.27
241.978	18225.43
242.049	18203.79
242.121	18175.07
242.192	18153.15
242.264	18102.93
242.335	18051.46
242.407	18012.19
242.478	17952.53
242.55	17926.79
242.621	17867.52
242.693	17814.46
242.764	17760.87
242.836	17721.45
242.907	17698.32
242.979	17683.23
243.05	17652.1
243.122	17624.25
243.193	17575.91
243.264	17505.65
243.336	17474.75
243.407	17451.33
243.479	17442.22
243.55	17408.01
243.622	17379.28
243.693	17345.5
243.764	17323.14
243.836	17267.72
243.907	17225.93
243.978	17201.55
244.05	17166.46
244.121	17120.24
244.192	17100.48
244.264	17052.96
244.335	17011.52
244.407	16954.6
244.478	16912.57
244.549	16869.97
244.62	16811.75
244.692	16776.08
244.763	16750.11
244.834	16702.15
244.906	16653.91
244.977	16611.74
245.048	16590.39
245.119	16539.93
245.191	16494.57
245.262	16434.04
245.333	16425.99
245.405	16387.67
245.476	16360.06
245.547	16327.52
245.618	16299.95
245.689	16267.57
245.761	16240.86
245.832	16209.3
245.903	16179.41
245.974	16150.3
246.045	16119.16
246.117	16116.22
246.188	16072.36
246.259	16034.09
246.33	15998.76
246.401	15963.43
246.473	15916.78
246.544	15875.81
246.615	15852.53
246.686	15808.28
246.757	15789.29
246.828	15738.82
246.899	15729.62
246.97	15676.64
247.042	15632.64
247.113	15612.06
247.184	15595.86
247.255	15554.17
247.326	15525.73
247.397	15485.24
247.468	15451.55
247.539	15417.42
247.61	15361.27
247.681	15342.95
247.752	15321.5
247.823	15283.13
247.894	15252.81
247.965	15214.3
248.037	15180.02
248.108	15136.11
248.179	15100.35
248.25	15075.28
248.321	15053.54
248.392	15003.41
248.463	14999.75
248.534	14967.79
248.605	14940.55
248.675	14914.91
248.746	14895.48
248.817	14874.13
248.888	14858.75
248.959	14811.75
249.03	14792.04
249.101	14767.84
249.172	14731.2
249.243	14676.49
249.314	14665.07
249.385	14637.3
249.456	14614.69
249.527	14582.97
249.598	14558.87
249.669	14540.22
249.739	14518.67
249.81	14502.18
249.881	14461.45
249.952	14434.74
250.023	14407.31
250.094	14369.76
250.165	14320.64
250.235	14285.6
250.306	14256.24
250.377	14218.06
250.448	14200.66
250.519	14153.27
250.59	14144.02
250.66	14111.91
250.731	14109.79
250.802	14087.09
250.873	14068.05
250.944	14047.56
251.014	14019.84
251.085	14019.69
251.156	13999.64
251.227	13986.14
251.297	13968.89
251.368	13958.18
251.439	13937.98
251.51	13930.18
251.58	13888.28
251.651	13859.22
251.722	13843.21
251.792	13800.64
251.863	13775.96
251.934	13758.56
252.005	13759.91
252.075	13726.26
252.146	13716.19
252.217	13705.77
252.287	13685.58
252.358	13658.92
252.429	13649.52
252.499	13616.83
252.57	13590.08
252.641	13576.29
252.711	13541.39
252.782	13497.43
252.852	13501.81
252.923	13477.18
252.994	13456.98
253.064	13452.88
253.135	13423.96
253.205	13398.12
253.276	13396.48
253.347	13390.21
253.417	13360.42
253.488	13332.9
253.558	13306.82
253.629	13286.76
253.699	13265.36
253.77	13246.75
253.841	13221.93
253.911	13206.4
253.982	13186.01
254.052	13168.27
254.123	13145.9
254.193	13127.1
254.264	13142.14
254.334	13098.47
254.405	13064.15
254.475	13022.83
254.546	12992.66
254.616	12984.56
254.687	12972.6
254.757	12947.01
254.827	12919.72
254.898	12903.14
254.968	12878.94
255.039	12854.98
255.109	12838.64
255.18	12795.4
255.25	12755
255.321	12736.93
255.391	12704.24
255.461	12709.45
255.532	12667.51
255.602	12643.07
255.673	12603.45
255.743	12572.54
255.813	12530.85
255.884	12520.92
255.954	12513.64
256.024	12519.09
256.095	12500.05
256.165	12457.96
256.235	12442.59
256.306	12413.57
256.376	12406.19
256.446	12393.8
256.517	12379.78
256.587	12370.09
256.657	12365.56
256.728	12348.69
256.798	12327.86
256.868	12297.83
256.938	12266.31
257.009	12257.2
257.079	12245.29
257.149	12247.7
257.219	12208.12
257.29	12196.75
257.36	12155.63
257.43	12145.37
257.5	12099
257.571	12071.23
257.641	12061.49
257.711	12032.19
257.781	12021.68
257.852	12003.89
257.922	11973.33
257.992	11951.06
258.062	11930.24
258.132	11922.72
258.202	11901.9
258.273	11896.21
258.343	11895.44
258.413	11864.3
258.483	11841.46
258.553	11813.31
258.623	11785.74
258.693	11763.76
258.764	11763.66
258.834	11761.59
258.904	11743.13
258.974	11717.01
259.044	11699.17
259.114	11688.95
259.184	11673.87
259.254	11655.94
259.324	11614.25
259.394	11600.8
259.464	11603.89
259.535	11582.63
259.605	11552.89
259.675	11526.77
259.745	11510.09
259.815	11483.1
259.885	11460.6
259.955	11467.83
260.025	11437.46
260.095	11418.28
260.165	11413.32
260.235	11408.59
260.305	11376.59
260.375	11344.06
260.445	11356.3
260.515	11349.6
260.585	11340.35
260.655	11318.42
260.725	11311.43
260.795	11305.89
260.865	11307.77
260.934	11276.68
261.004	11265.55
261.074	11253.98
261.144	11255.53
261.214	11242.18
261.284	11226.95
261.354	11227.67
261.424	11205.55
261.494	11212.68
261.564	11200.44
261.634	11187.14
261.703	11148.87
261.773	11152.58
261.843	11141.4
