Data from 20250703_urea_0.1M_MAYP1162681_06-01-05-278.txt Node
Date: Fri Jul 04 06:01:05 BST 2025
User: adleo
Spectrometer: MAYP116268
Trigger mode: 0
Integration Time (sec): 1.000000E0
Scans to average: 1
Electric dark correction enabled: true
Nonlinearity correction enabled: true
Boxcar width: 10
XAxis mode: Wavelengths
Number of Pixels in Spectrum: 2068
>>>>>Begin Spectral Data<<<<<
179.565	1242.81
179.642	1300.38
179.718	1352.85
179.795	1391.27
179.871	1426.29
179.948	1445.96
180.024	1468.66
180.101	1493.82
180.177	1509.09
180.254	1532.81
180.33	1555.94
180.407	1612.58
180.483	1709.78
180.56	1803.48
180.636	1893.03
180.712	1877.1
180.789	1885.22
180.865	1899.2
180.942	1909.18
181.018	1922.06
181.095	1932.86
181.171	1942.27
181.248	1942.37
181.324	1952.02
181.4	1960.44
181.477	1970.38
181.553	1983.73
181.63	2005.66
181.706	2020.64
181.782	2028.1
181.859	2027.53
181.935	2032.48
182.011	2029.01
182.088	2047.61
182.164	2066.11
182.24	2077.57
182.317	2090.36
182.393	2092.12
182.469	2107.63
182.546	2121.28
182.622	2126.42
182.698	2121.56
182.775	2131.41
182.851	2146.78
182.927	2141.5
183.003	2137.22
183.08	2131.84
183.156	2139.74
183.232	2136.26
183.308	2122.52
183.385	2128.84
183.461	2145.92
183.537	2148.11
183.613	2164.76
183.69	2155.77
183.766	2149.34
183.842	2156.86
183.918	2162.05
183.995	2175.7
184.071	2178.98
184.147	2170.47
184.223	2158.48
184.299	2171.62
184.375	2162.72
184.452	2168.57
184.528	2221.64
184.604	2232.43
184.68	2243.04
184.756	2251.27
184.832	2255.27
184.908	2263.59
184.985	2266.07
185.061	2249.37
185.137	2259.65
185.213	2243.38
185.289	2245.04
185.365	2234.01
185.441	2235.58
185.517	2245.91
185.593	2240.53
185.669	2236.96
185.745	2252.71
185.822	2268.31
185.898	2261.36
185.974	2267.5
186.05	2262.83
186.126	2225.47
186.202	2219.91
186.278	2216.39
186.354	2206.68
186.43	2211.1
186.506	2206.35
186.582	2209.63
186.658	2219.43
186.734	2196.93
186.81	2201.78
186.886	2205.2
186.962	2217.14
187.038	2209.15
187.114	2204.82
187.19	2211.15
187.266	2201.78
187.341	2200.02
187.417	2193.83
187.493	2192.12
187.569	2196.83
187.645	2187.17
187.721	2175.08
187.797	2181.93
187.873	2189.07
187.949	2183.41
188.025	2178.18
188.101	2181.89
188.176	2181.79
188.252	2174.56
188.328	2181.79
188.404	2181.98
188.48	2175.03
188.556	2167.14
188.632	2169.42
188.707	2168.75
188.783	2164.9
188.859	2159.95
188.935	2146.96
189.011	2155.38
189.086	2149.44
189.162	2139.21
189.238	2138.26
189.314	2135.02
189.39	2129.55
189.465	2121.03
189.541	2137.74
189.617	2124.27
189.693	2119.52
189.768	2126.18
189.844	2153.59
189.92	2144.99
189.996	2152.69
190.071	2163.07
190.147	2163.87
190.223	2172.01
190.298	2163.02
190.374	2151.03
190.45	2163.73
190.526	2176.43
190.601	2170.91
190.677	2171.25
190.753	2201.09
190.828	2203.09
190.904	2218.03
190.98	2232.02
191.055	2242.63
191.131	2235.97
191.207	2256.1
191.282	2267.32
191.358	2252.43
191.433	2234.91
191.509	2248.13
191.585	2245.23
191.66	2249.56
191.736	2258.79
191.811	2249.32
191.887	2267.08
191.963	2288.2
192.038	2295.1
192.114	2293.53
192.189	2294.58
192.265	2293.48
192.34	2272.39
192.416	2273.25
192.491	2272.39
192.567	2274.63
192.642	2278.44
192.718	2275.49
192.793	2262.64
192.869	2258.07
192.944	2264.35
193.02	2274.58
193.095	2282.96
193.171	2287.33
193.246	2285.29
193.322	2282.48
193.397	2284.76
193.473	2269.1
193.548	2253.07
193.624	2257.45
193.699	2255.21
193.775	2274.39
193.85	2275.87
193.925	2283.67
194.001	2283.67
194.076	2272.01
194.152	2261.73
194.227	2253.74
194.302	2245.41
194.378	2246.46
194.453	2243.18
194.529	2255.31
194.604	2239.04
194.679	2231.09
194.755	2213.54
194.83	2228.54
194.905	2225.82
194.981	2233.15
195.056	2225.3
195.131	2233.44
195.207	2231.44
195.282	2219.74
195.357	2198.7
195.433	2212.64
195.508	2200.88
195.583	2206.88
195.659	2222.58
195.734	2232.53
195.809	2231.91
195.884	2239.19
195.96	2242.19
196.035	2258.27
196.11	2253.32
196.185	2266.88
196.261	2271.83
196.336	2302.57
196.411	2284.91
196.486	2292.28
196.561	2286.53
196.637	2299.04
196.712	2316.85
196.787	2321.13
196.862	2338.54
196.937	2351.11
197.013	2358.3
197.088	2371.72
197.163	2396.53
197.238	2414.2
197.313	2413.06
197.388	2429.1
197.464	2462.91
197.539	2473.71
197.614	2469.34
197.689	2484.33
197.764	2500.81
197.839	2521.33
197.914	2516.72
197.989	2539.14
198.065	2551.38
198.14	2599.84
198.215	2629.37
198.29	2639.85
198.365	2650.9
198.44	2662.71
198.515	2691.11
198.59	2705.16
198.665	2730.98
198.74	2739.61
198.815	2740.94
198.89	2764.76
198.965	2793.89
199.04	2787.22
199.115	2806.18
199.19	2848.97
199.265	2849.87
199.34	2857.02
199.415	2889.44
199.49	2912.22
199.565	2922.75
199.64	2947.87
199.715	2948.54
199.79	2953.88
199.865	2960.12
199.94	2961.46
200.015	2994.78
200.09	3001.89
200.165	3009.8
200.24	3016.43
200.315	3058.52
200.39	3075.5
200.464	3083.03
200.539	3083.32
200.614	3103.1
200.689	3125.9
200.764	3136.83
200.839	3158.13
200.914	3167.57
200.989	3160.46
201.063	3173.67
201.138	3156.66
201.213	3156.18
201.288	3138.92
201.363	3144.55
201.438	3146.03
201.512	3162.9
201.587	3145.21
201.662	3149.02
201.737	3163.76
201.812	3170.25
201.886	3132.16
201.961	3142.94
202.036	3131.26
202.111	3129.26
202.186	3100.8
202.26	3084.59
202.335	3055.68
202.41	3047.2
202.485	3028.56
202.559	3006.2
202.634	2981.12
202.709	2994.27
202.784	2975.49
202.858	2976.39
202.933	2959.28
203.008	2956.46
203.082	2939.35
203.157	2944.41
203.232	2905.99
203.306	2888.44
203.381	2860.79
203.456	2843.97
203.53	2826.79
203.605	2811.69
203.68	2794.86
203.754	2793.81
203.829	2787.66
203.904	2778.99
203.978	2781.04
204.053	2797.25
204.127	2795.05
204.202	2809.3
204.277	2803.78
204.351	2813.83
204.426	2822.18
204.5	2833.28
204.575	2817.6
204.65	2847.6
204.724	2857.23
204.799	2885.63
204.873	2904.71
204.948	2929.5
205.022	2948.37
205.097	2967.46
205.171	3010.27
205.246	3051.3
205.32	3085.19
205.395	3119.58
205.469	3143.04
205.544	3185.56
205.618	3209.94
205.693	3269.02
205.767	3297.12
205.842	3363.75
205.916	3402.65
205.991	3439.69
206.065	3491.92
206.14	3557.87
206.214	3606.13
206.289	3657.91
206.363	3727.74
206.438	3789.15
206.512	3856.52
206.586	3936.42
206.661	4005.46
206.735	4052.86
206.81	4117.62
206.884	4204.05
206.958	4264.3
207.033	4362.89
207.107	4443.82
207.181	4553.37
207.256	4621.34
207.33	4722.12
207.405	4813.04
207.479	4916.45
207.553	5008.03
207.628	5075.44
207.702	5176.31
207.776	5257.9
207.851	5344.82
207.925	5450.77
207.999	5539.31
208.073	5630.16
208.148	5724.72
208.222	5810.19
208.296	5936.44
208.371	6054.65
208.445	6156.57
208.519	6282.1
208.593	6387.5
208.668	6479.58
208.742	6578.54
208.816	6682.96
208.89	6796.56
208.965	6901.65
209.039	7009.47
209.113	7128.04
209.187	7256.72
209.261	7351
209.336	7472.98
209.41	7598.4
209.484	7702.85
209.558	7831.52
209.632	7949.62
209.707	8064.04
209.781	8190.63
209.855	8310.14
209.929	8424.59
210.003	8535.73
210.077	8638.09
210.151	8791.4
210.226	8934.94
210.3	9061.96
210.374	9186.86
210.448	9288.21
210.522	9399.87
210.596	9513.22
210.67	9624.07
210.744	9768.65
210.818	9906.9
210.892	10029.49
210.966	10124.03
211.041	10237.62
211.115	10325.92
211.189	10436.91
211.263	10554.46
211.337	10654.38
211.411	10763.57
211.485	10857.24
211.559	10968.11
211.633	11065.88
211.707	11120.86
211.781	11223.14
211.855	11282.61
211.929	11365.11
212.003	11437.68
212.077	11538.7
212.151	11647.63
212.225	11750.58
212.299	11825.63
212.373	11897.35
212.447	11978.13
212.52	12099.36
212.594	12187.13
212.668	12296.26
212.742	12382.74
212.816	12461.98
212.89	12542.24
212.964	12627.61
213.038	12713.08
213.112	12809.63
213.186	12903.44
213.26	12971.98
213.333	12999.27
213.407	13081.31
213.481	13164.13
213.555	13263.82
213.629	13332.46
213.703	13389.64
213.777	13465.85
213.85	13532.52
213.924	13654.58
213.998	13731.85
214.072	13796.88
214.146	13861
214.219	13928.63
214.293	13994.72
214.367	14064.57
214.441	14145.22
214.515	14208.7
214.588	14257.87
214.662	14293.11
214.736	14340.55
214.81	14411.8
214.883	14494.18
214.957	14559.4
215.031	14616.96
215.105	14656.05
215.178	14701.65
215.252	14755.45
215.326	14787.75
215.4	14826.41
215.473	14829.83
215.547	14871.29
215.621	14918.86
215.694	14983.07
215.768	15017.97
215.842	15059.95
215.915	15104.49
215.989	15138.86
216.063	15181.76
216.136	15239.21
216.21	15288.77
216.284	15360.39
216.357	15424.07
216.431	15475.21
216.504	15537.63
216.578	15617.11
216.652	15679.15
216.725	15739.69
216.799	15804.66
216.873	15862.79
216.946	15925.5
217.02	15974.23
217.093	16027.15
217.167	16057.61
217.24	16097.95
217.314	16147.41
217.387	16195.8
217.461	16245.06
217.535	16302.85
217.608	16337.45
217.682	16383.09
217.755	16449.65
217.829	16489.22
217.902	16535.68
217.976	16586.72
218.049	16626.05
218.123	16657.43
218.196	16718.88
218.27	16761.24
218.343	16790.49
218.417	16841.63
218.49	16884.04
218.563	16949.15
218.637	17000.91
218.71	17069.49
218.784	17119.33
218.857	17179.47
218.931	17233.45
219.004	17288.53
219.077	17344.54
219.151	17399.09
219.224	17445.84
219.298	17489.11
219.371	17543.23
219.444	17574.75
219.518	17622.46
219.591	17670.08
219.665	17742.36
219.738	17786.7
219.811	17825.06
219.885	17890.41
219.958	17940.67
220.031	17985.83
220.105	18044.28
220.178	18095.12
220.251	18135.6
220.325	18188.81
220.398	18229.91
220.471	18276.76
220.544	18321.23
220.618	18357.67
220.691	18415.16
220.764	18464.7
220.838	18517.27
220.911	18555.29
220.984	18620.74
221.057	18668.06
221.131	18721.98
221.204	18733.12
221.277	18793.31
221.35	18861.59
221.424	18889.44
221.497	18934.94
221.57	18982.93
221.643	19020.95
221.716	19064.66
221.79	19101.96
221.863	19135.98
221.936	19175.84
222.009	19216.27
222.082	19256.41
222.155	19285.13
222.229	19327.63
222.302	19360.02
222.375	19388.79
222.448	19426.28
222.521	19461.7
222.594	19494.37
222.667	19513.31
222.74	19557.98
222.814	19587.33
222.887	19602.17
222.96	19642.8
223.033	19676.96
223.106	19708.67
223.179	19745.64
223.252	19768.96
223.325	19793.01
223.398	19821.92
223.471	19847.03
223.544	19869.34
223.617	19893.58
223.69	19929.1
223.763	19937.43
223.837	19969.34
223.91	20006.2
223.983	20020.47
224.056	20035.45
224.129	20051.94
224.202	20075.16
224.275	20083.07
224.348	20086.54
224.42	20111.26
224.493	20123.69
224.566	20136.8
224.639	20159.4
224.712	20160.9
224.785	20180.8
224.858	20200.08
224.931	20210.82
225.004	20214.05
225.077	20241.71
225.15	20231.11
225.223	20248.22
225.296	20282
225.369	20283.69
225.442	20285.04
225.514	20308.85
225.587	20323.16
225.66	20348.32
225.733	20371.59
225.806	20396.36
225.879	20405.09
225.952	20403.79
226.025	20427.93
226.097	20458.24
226.17	20465.67
226.243	20459.74
226.316	20470.49
226.389	20479.79
226.461	20496.56
226.534	20517.18
226.607	20518.92
226.68	20550
226.753	20557.76
226.825	20552.65
226.898	20565.47
226.971	20567.79
227.044	20569.86
227.117	20578.73
227.189	20594.92
227.262	20610.29
227.335	20617.33
227.407	20626.15
227.48	20641.09
227.553	20648.08
227.626	20638.49
227.698	20641.23
227.771	20658.63
227.844	20649.04
227.916	20659.02
227.989	20650.73
228.062	20657.14
228.134	20685.76
228.207	20693.96
228.28	20687.89
228.352	20689.77
228.425	20705.86
228.498	20718.39
228.57	20719.07
228.643	20732.42
228.716	20724.27
228.788	20716.75
228.861	20707.93
228.934	20722.44
229.006	20720.37
229.079	20709.19
229.151	20705.09
229.224	20692.27
229.296	20695.79
229.369	20729.96
229.442	20743.89
229.514	20735.94
229.587	20748.18
229.659	20720.95
229.732	20727.89
229.804	20750.73
229.877	20772.32
229.949	20774.59
230.022	20794.25
230.094	20786.2
230.167	20787.89
230.239	20772.47
230.312	20770.16
230.384	20800.18
230.457	20796.33
230.529	20800.86
230.602	20799.89
230.674	20800.33
230.747	20815.8
230.819	20833.58
230.892	20803.36
230.964	20799.99
231.037	20813.39
231.109	20808.08
231.181	20811.6
231.254	20793.77
231.326	20774.44
231.399	20774.01
231.471	20765.91
231.544	20738.54
231.616	20754.44
231.688	20743.31
231.761	20741.91
231.833	20729.09
231.905	20704.8
231.978	20691.65
232.05	20669.62
232.122	20666.87
232.195	20659.69
232.267	20664.85
232.339	20637.19
232.412	20637.23
232.484	20621.72
232.556	20597.96
232.629	20604.22
232.701	20604.08
232.773	20590.44
232.846	20580.03
232.918	20555.4
232.99	20542.82
233.062	20542.92
233.135	20530.2
233.207	20508.51
233.279	20500.61
233.351	20497.28
233.424	20472.89
233.496	20454.82
233.568	20474.29
233.64	20451.26
233.713	20443.64
233.785	20418.24
233.857	20403.11
233.929	20372.94
234.001	20377.09
234.074	20382.2
234.146	20345.86
234.218	20330.2
234.29	20313.86
234.362	20291.31
234.434	20261.62
234.507	20226.29
234.579	20190.54
234.651	20159.93
234.723	20144.18
234.795	20122.54
234.867	20098.15
234.939	20095.5
235.012	20087.7
235.084	20069.33
235.156	20064.08
235.228	20029.34
235.3	20004.9
235.372	19988.57
235.444	19982.35
235.516	19930.64
235.588	19901.58
235.66	19880.47
235.732	19845
235.804	19882.26
235.876	19860.38
235.948	19852.96
236.02	19839.99
236.092	19815.85
236.164	19804.62
236.236	19779.42
236.308	19752.48
236.38	19732.14
236.452	19696.53
236.524	19668.97
236.596	19658.65
236.668	19633.21
236.74	19613.21
236.812	19592.63
236.884	19570.9
236.956	19551.72
237.028	19526.52
237.1	19495.19
237.172	19475.1
237.244	19470.57
237.316	19406.81
237.388	19381.41
237.46	19341.03
237.532	19329.18
237.604	19285.56
237.675	19272.94
237.747	19255.54
237.819	19223.5
237.891	19196.65
237.963	19156.99
238.035	19129.33
238.107	19051.07
238.178	19034.06
238.25	19000.76
238.322	19004.57
238.394	18957.97
238.466	18914.84
238.538	18887.32
238.609	18869.69
238.681	18823.09
238.753	18769.89
238.825	18734.95
238.897	18703.62
238.968	18694.56
239.04	18645.17
239.112	18646.13
239.184	18586.38
239.255	18549.13
239.327	18526.91
239.399	18492.36
239.471	18472.94
239.542	18445.18
239.614	18444.51
239.686	18378.92
239.758	18362.2
239.829	18294.44
239.901	18280.9
239.973	18253.43
240.044	18229.67
240.116	18186.88
240.188	18163.36
240.259	18135.51
240.331	18094.84
240.403	18070.4
240.474	18016.29
240.546	17985.68
240.618	17939.85
240.689	17913.3
240.761	17882.36
240.833	17865.01
240.904	17830.99
240.976	17795.28
241.048	17759.91
241.119	17731.72
241.191	17718.66
241.262	17700.39
241.334	17678.46
241.405	17643.72
241.477	17601.98
241.549	17571.67
241.62	17546.9
241.692	17523.48
241.763	17507.91
241.835	17480.01
241.906	17453.7
241.978	17410.42
242.049	17386.13
242.121	17360.34
242.192	17340.54
242.264	17293.69
242.335	17241.02
242.407	17219.38
242.478	17182.12
242.55	17147.33
242.621	17100.24
242.693	17053.3
242.764	17005.4
242.836	16964.87
242.907	16933.97
242.979	16916.14
243.05	16875.42
243.122	16843.32
243.193	16805.63
243.264	16748.13
243.336	16713.43
243.407	16679.07
243.479	16672.37
243.55	16646.35
243.622	16625.33
243.693	16590.68
243.764	16579.93
243.836	16542.92
243.907	16509.23
243.978	16478.24
244.05	16457.8
244.121	16408.3
244.192	16393.26
244.264	16351.04
244.335	16328.97
244.407	16286.36
244.478	16255.37
244.549	16221.78
244.62	16177
244.692	16151.7
244.763	16133.96
244.834	16093.67
244.906	16059.78
244.977	16021.18
245.048	16006.28
245.119	15959.58
245.191	15913.26
245.262	15854.98
245.333	15833.78
245.405	15801.63
245.476	15778.73
245.547	15744.03
245.618	15729.14
245.689	15698.53
245.761	15673.13
245.832	15630.52
245.903	15600.49
245.974	15566.99
246.045	15532.14
246.117	15521.87
246.188	15466.92
246.259	15423.64
246.33	15396.84
246.401	15363
246.473	15325.26
246.544	15282.99
246.615	15259.13
246.686	15221.48
246.757	15202.68
246.828	15170.48
246.899	15150.48
246.97	15098.61
247.042	15058.84
247.113	15030.69
247.184	15020.67
247.255	14983.5
247.326	14959.69
247.397	14931.25
247.468	14899.92
247.539	14872.54
247.61	14826.99
247.681	14814.21
247.752	14800.23
247.823	14765.81
247.894	14735.98
247.965	14694.42
248.037	14660.49
248.108	14614.11
248.179	14591.55
248.25	14565.86
248.321	14538.58
248.392	14502.57
248.463	14501.07
248.534	14475
248.605	14452.58
248.675	14418.55
248.746	14398.74
248.817	14377.14
248.888	14355.88
248.959	14311.05
249.03	14291.29
249.101	14264.39
249.172	14228.38
249.243	14170.53
249.314	14160.7
249.385	14131.82
249.456	14114.56
249.527	14080.34
249.598	14059.95
249.669	14032.32
249.739	14012.37
249.81	13995.64
249.881	13946.28
249.952	13914.8
250.023	13880.76
250.094	13840.27
250.165	13794.38
250.235	13761.74
250.306	13738.12
250.377	13700.66
250.448	13683.74
250.519	13636.26
250.59	13624.55
250.66	13593.12
250.731	13592.1
250.802	13555.42
250.873	13543.13
250.944	13522.16
251.014	13485.23
251.085	13481.47
251.156	13463.34
251.227	13448.83
251.297	13428.35
251.368	13422.03
251.439	13405.21
251.51	13398.7
251.58	13365.63
251.651	13339.65
251.722	13329.43
251.792	13285.61
251.863	13257.36
251.934	13246.03
252.005	13255.81
252.075	13230.41
252.146	13215.95
252.217	13200.23
252.287	13189.58
252.358	13152.6
252.429	13144.17
252.499	13113.32
252.57	13094.66
252.641	13077.79
252.711	13053.4
252.782	13008.56
252.852	13009.09
252.923	12989.04
252.994	12966.43
253.064	12962.96
253.135	12924.98
253.205	12894.17
253.276	12885.88
253.347	12877.11
253.417	12845.97
253.488	12820.32
253.558	12794.82
253.629	12777.18
253.699	12762.52
253.77	12742.9
253.841	12723.86
253.911	12702.55
253.982	12688.82
254.052	12681.83
254.123	12665.97
254.193	12634.83
254.264	12657.34
254.334	12614.87
254.405	12576.88
254.475	12539.57
254.546	12510.36
254.616	12514.85
254.687	12499.66
254.757	12487.9
254.827	12461.44
254.898	12443.89
254.968	12421.09
255.039	12391.2
255.109	12375.2
255.18	12340.2
255.25	12295.81
255.321	12284.72
255.391	12251.27
255.461	12255.17
255.532	12200.08
255.602	12172.12
255.673	12142.57
255.743	12111.57
255.813	12068.72
255.884	12062.36
255.954	12060.05
256.024	12059.42
256.095	12038.26
256.165	12002.74
256.235	11982.54
256.306	11960.32
256.376	11963.26
256.446	11944.7
256.517	11933.66
256.587	11920.65
256.657	11907.39
256.728	11903.01
256.798	11880.55
256.868	11863.05
256.938	11834.47
257.009	11823.62
257.079	11814.27
257.149	11818.9
257.219	11779.37
257.29	11769.11
257.36	11728.05
257.43	11716.57
257.5	11674.54
257.571	11650.93
257.641	11639.31
257.711	11609.24
257.781	11600.13
257.852	11578
257.922	11538.72
257.992	11522.53
258.062	11504.31
258.132	11493.22
258.202	11467.78
258.273	11455
258.343	11454.91
258.413	11428.35
258.483	11410.09
258.553	11375.96
258.623	11355.33
258.693	11344.64
258.764	11342.23
258.834	11345.94
258.904	11324.25
258.974	11292.97
259.044	11277.45
259.114	11265.7
259.184	11252.73
259.254	11230.03
259.324	11190.51
259.394	11185.41
259.464	11183.24
259.535	11164.1
259.605	11135.09
259.675	11109.41
259.745	11091.48
259.815	11056.83
259.885	11034.18
259.955	11050.71
260.025	11030.42
260.095	11003.58
260.165	10987.82
260.235	10987.29
260.305	10966.52
260.375	10940.31
260.445	10949.41
260.515	10947.78
260.585	10940.21
260.655	10920.74
260.725	10922.77
260.795	10910.96
260.865	10917.9
260.934	10888.99
261.004	10876.75
261.074	10862.87
261.144	10866.05
261.214	10860.55
261.284	10839.4
261.354	10838.87
261.424	10809.91
261.494	10815.06
261.564	10799.64
261.634	10793.43
261.703	10756.37
261.773	10748.57
261.843	10745.29
261.913	10731.12
