Data from 20250703_urea_0.1M_MAYP1162681_09-21-05-326.txt Node
Date: Fri Jul 04 09:21:05 BST 2025
User: adleo
Spectrometer: MAYP116268
Trigger mode: 0
Integration Time (sec): 1.000000E0
Scans to average: 1
Electric dark correction enabled: true
Nonlinearity correction enabled: true
Boxcar width: 10
XAxis mode: Wavelengths
Number of Pixels in Spectrum: 2068
>>>>>Begin Spectral Data<<<<<
179.565	1220.1
179.642	1275.26
179.718	1316.87
179.795	1355.74
179.871	1387.9
179.948	1406.37
180.024	1425.95
180.101	1449.01
180.177	1461.88
180.254	1484.08
180.33	1506.31
180.407	1561.1
180.483	1657.07
180.56	1748.43
180.636	1832.85
180.712	1817.3
180.789	1828.95
180.865	1841.54
180.942	1847.95
181.018	1858.5
181.095	1870.3
181.171	1874.96
181.248	1876.91
181.324	1893.55
181.4	1900.92
181.477	1912.66
181.553	1924.21
181.63	1948.37
181.706	1963.77
181.782	1972.85
181.859	1974.71
181.935	1981.22
182.011	1977.84
182.088	1995.39
182.164	2011.47
182.24	2025.07
182.317	2034
182.393	2028.63
182.469	2044.28
182.546	2057.97
182.622	2065.58
182.698	2059.59
182.775	2071.48
182.851	2084.08
182.927	2077.85
183.003	2076.19
183.08	2069.24
183.156	2078.37
183.232	2070.29
183.308	2060.97
183.385	2069.24
183.461	2086.13
183.537	2088.31
183.613	2099.11
183.69	2090.02
183.766	2081.37
183.842	2087.07
183.918	2092.5
183.995	2107.38
184.071	2110.04
184.147	2105.29
184.223	2091.21
184.299	2105.01
184.375	2092.93
184.452	2098.4
184.528	2148.6
184.604	2154.92
184.68	2168
184.756	2172.81
184.832	2177.76
184.908	2180.28
184.985	2179.75
185.061	2161.82
185.137	2170.34
185.213	2161.58
185.289	2160.63
185.365	2154.5
185.441	2154.74
185.517	2168.54
185.593	2167.3
185.669	2162.26
185.745	2174.01
185.822	2190.94
185.898	2184.61
185.974	2194.45
186.05	2188.74
186.126	2152.87
186.202	2149.3
186.278	2144.07
186.354	2137.88
186.43	2145.83
186.506	2144.45
186.582	2145.21
186.658	2152.68
186.734	2130.84
186.81	2131.75
186.886	2134.84
186.962	2149.78
187.038	2147.97
187.114	2141.07
187.19	2145.97
187.266	2141.83
187.341	2141.21
187.417	2133.79
187.493	2129.75
187.569	2131.65
187.645	2126.09
187.721	2115.19
187.797	2121.13
187.873	2126.56
187.949	2119.85
188.025	2113.52
188.101	2117.19
188.176	2124.61
188.252	2121.52
188.328	2131.02
188.404	2129.46
188.48	2125.98
188.556	2116.28
188.632	2115.37
188.707	2116.23
188.783	2116.37
188.859	2106.77
188.935	2097.44
189.011	2105.86
189.086	2099.44
189.162	2090.6
189.238	2089.69
189.314	2088.69
189.39	2081.61
189.465	2074.33
189.541	2093.12
189.617	2078.71
189.693	2074.9
189.768	2075.86
189.844	2101.51
189.92	2095.47
189.996	2105.69
190.071	2117.97
190.147	2116.54
190.223	2124.25
190.298	2117.73
190.374	2102.94
190.45	2117.49
190.526	2126.86
190.601	2119.87
190.677	2122.34
190.753	2150.37
190.828	2152.61
190.904	2165.88
190.98	2183.82
191.055	2194.81
191.131	2185.82
191.207	2205.6
191.282	2214.88
191.358	2204.65
191.433	2188.37
191.509	2195.98
191.585	2193.55
191.66	2193.27
191.736	2201.74
191.811	2193.27
191.887	2207.88
191.963	2233.19
192.038	2239.19
192.114	2235.33
192.189	2240.75
192.265	2237.43
192.34	2215.77
192.416	2214.29
192.491	2208.72
192.567	2207.44
192.642	2211.58
192.718	2209.15
192.793	2198.78
192.869	2194.02
192.944	2197.88
193.02	2205.63
193.095	2214.24
193.171	2222.76
193.246	2221.86
193.322	2220
193.397	2220.86
193.473	2206.06
193.548	2186.31
193.624	2190.69
193.699	2190.74
193.775	2208.68
193.85	2211.77
193.925	2220.76
194.001	2222.05
194.076	2214.44
194.152	2206.16
194.227	2197.49
194.302	2192.45
194.378	2194.83
194.453	2191.03
194.529	2203.4
194.604	2187.6
194.679	2178.47
194.755	2156.78
194.83	2171.11
194.905	2167.73
194.981	2179.01
195.056	2173.39
195.131	2181.43
195.207	2180.96
195.282	2171.35
195.357	2150.26
195.433	2166.77
195.508	2158.02
195.583	2161.92
195.659	2178.1
195.734	2188.42
195.809	2186.52
195.884	2192.61
195.96	2195.04
196.035	2212.12
196.11	2208.07
196.185	2220.25
196.261	2226.2
196.336	2258.65
196.411	2240.8
196.486	2246.13
196.561	2239.13
196.637	2248.93
196.712	2264.45
196.787	2265.88
196.862	2283.53
196.937	2293.52
197.013	2295.18
197.088	2303.56
197.163	2326.93
197.238	2342.65
197.313	2337.84
197.388	2352.88
197.464	2383.16
197.539	2392.25
197.614	2385.07
197.689	2398.35
197.764	2414.49
197.839	2431.2
197.914	2424.91
197.989	2451.34
198.065	2468.14
198.14	2519.51
198.215	2545.31
198.29	2555.75
198.365	2569.13
198.44	2579.46
198.515	2608.04
198.59	2625.09
198.665	2651.09
198.74	2658.62
198.815	2658.77
198.89	2684.53
198.965	2715.22
199.04	2710.93
199.115	2726.27
199.19	2769.95
199.265	2770.24
199.34	2782.77
199.415	2818.86
199.49	2837.1
199.565	2845.63
199.64	2865.17
199.715	2861.31
199.79	2870.74
199.865	2876.89
199.94	2876.22
200.015	2908.31
200.09	2913.26
200.165	2922.08
200.24	2929.47
200.315	2975.18
200.39	2993.49
200.464	3000.07
200.539	3002.26
200.614	3021.75
200.689	3044.92
200.764	3050.74
200.839	3069.99
200.914	3075.67
200.989	3065.75
201.063	3083.1
201.138	3065.38
201.213	3070.67
201.288	3048.98
201.363	3050.22
201.438	3054.41
201.512	3071.71
201.587	3052.35
201.662	3056.88
201.737	3071.24
201.812	3079.3
201.886	3042.07
201.961	3052.61
202.036	3040.79
202.111	3036.26
202.186	3007.77
202.26	2992.89
202.335	2969.24
202.41	2962.04
202.485	2946.55
202.559	2925.25
202.634	2897.98
202.709	2910.89
202.784	2894.11
202.858	2897.3
202.933	2884.48
203.008	2876.24
203.082	2858.46
203.157	2861.37
203.232	2824.87
203.306	2804.23
203.381	2776.15
203.456	2759.95
203.53	2742.44
203.605	2725.68
203.68	2711.37
203.754	2710.61
203.829	2702.94
203.904	2696.46
203.978	2697.56
204.053	2711.57
204.127	2710.62
204.202	2723.2
204.277	2718.62
204.351	2720.57
204.426	2727.44
204.5	2732.97
204.575	2717.58
204.65	2744.65
204.724	2759.29
204.799	2783.25
204.873	2802.47
204.948	2824.29
205.022	2831.92
205.097	2847.75
205.171	2891.41
205.246	2926.85
205.32	2955.73
205.395	2985.53
205.469	3006.12
205.544	3045.57
205.618	3061.17
205.693	3111.59
205.767	3136.01
205.842	3192.4
205.916	3228.85
205.991	3264.44
206.065	3316.08
206.14	3377.27
206.214	3423.12
206.289	3466.25
206.363	3531.94
206.438	3586.63
206.512	3651.88
206.586	3730.96
206.661	3792.46
206.735	3831.92
206.81	3892.44
206.884	3970.85
206.958	4023.36
207.033	4107.75
207.107	4180.22
207.181	4280.66
207.256	4343.36
207.33	4434.61
207.405	4521.79
207.479	4613.32
207.553	4693.94
207.628	4752.26
207.702	4842.11
207.776	4912.69
207.851	4989.59
207.925	5079.84
207.999	5153.09
208.073	5228.45
208.148	5313.61
208.222	5385.83
208.296	5496.13
208.371	5594.3
208.445	5690.98
208.519	5804.8
208.593	5905.28
208.668	5991.27
208.742	6083.77
208.816	6169.68
208.89	6280.24
208.965	6369.03
209.039	6463.94
209.113	6568.46
209.187	6685.91
209.261	6769.36
209.336	6881.37
209.41	6997.14
209.484	7091.56
209.558	7204.81
209.632	7310.28
209.707	7410.97
209.781	7528.05
209.855	7635.5
209.929	7748.48
210.003	7844.22
210.077	7935.83
210.151	8074.87
210.226	8192.59
210.3	8304.95
210.374	8421.59
210.448	8508.4
210.522	8600.08
210.596	8703.78
210.67	8802.92
210.744	8933.37
210.818	9057.1
210.892	9166.92
210.966	9251.41
211.041	9355.21
211.115	9437.44
211.189	9548.91
211.263	9656.11
211.337	9742.59
211.411	9845.23
211.485	9923.89
211.559	10018.34
211.633	10104.16
211.707	10147.04
211.781	10238.48
211.855	10292.01
211.929	10367.97
212.003	10436.33
212.077	10532.45
212.151	10626.17
212.225	10719.93
212.299	10788.31
212.373	10855.53
212.447	10933.26
212.52	11036.44
212.594	11119.66
212.668	11222.98
212.742	11290.4
212.816	11362.26
212.89	11442.55
212.964	11512.39
213.038	11599.15
213.112	11692.51
213.186	11789.19
213.26	11847.41
213.333	11880.18
213.407	11958.02
213.481	12043.09
213.555	12133.13
213.629	12202.2
213.703	12260.19
213.777	12327.24
213.85	12383.88
213.924	12488.29
213.998	12560.6
214.072	12627.89
214.146	12688.49
214.219	12749.37
214.293	12815.22
214.367	12887.57
214.441	12965.28
214.515	13029.25
214.588	13070.37
214.662	13101.37
214.736	13144.85
214.81	13223.62
214.883	13303.59
214.957	13354.78
215.031	13402.89
215.105	13435.91
215.178	13481.52
215.252	13535.89
215.326	13566.31
215.4	13605.46
215.473	13618.95
215.547	13651.93
215.621	13691.99
215.694	13750.17
215.768	13781.75
215.842	13818.43
215.915	13859.12
215.989	13881.39
216.063	13922.8
216.136	13968.55
216.21	14020.37
216.284	14080.24
216.357	14133.22
216.431	14176.94
216.504	14236.18
216.578	14318.71
216.652	14381.14
216.725	14431.27
216.799	14487.43
216.873	14553.37
216.946	14611.37
217.02	14657.59
217.093	14708.88
217.167	14744.22
217.24	14784.03
217.314	14835.42
217.387	14888.49
217.461	14922.86
217.535	14990.2
217.608	15032.96
217.682	15087.81
217.755	15149.42
217.829	15193.09
217.902	15241.14
217.976	15286.5
218.049	15333.5
218.123	15357.65
218.196	15406.57
218.27	15453.47
218.343	15486.25
218.417	15532.23
218.49	15576.77
218.563	15640.88
218.637	15700.79
218.71	15767.16
218.784	15821.63
218.857	15880.24
218.931	15932.05
219.004	15991.92
219.077	16045.51
219.151	16094.92
219.224	16139.5
219.298	16184.95
219.371	16239.8
219.444	16276.72
219.518	16321.98
219.591	16367.19
219.665	16447.53
219.738	16501.03
219.811	16537.95
219.885	16601.66
219.958	16662.97
220.031	16712.03
220.105	16764.76
220.178	16803.75
220.251	16844.14
220.325	16899.08
220.398	16950.55
220.471	17002.89
220.544	17060.05
220.618	17104.19
220.691	17147.37
220.764	17187.71
220.838	17244.24
220.911	17287.67
220.984	17355.23
221.057	17410.27
221.131	17463.33
221.204	17472.87
221.277	17540.92
221.35	17618.22
221.424	17656.1
221.497	17694.41
221.57	17739.52
221.643	17785.83
221.716	17834.56
221.79	17867.61
221.863	17906.5
221.936	17932.77
222.009	17971.03
222.082	18009.59
222.155	18038.31
222.229	18097.39
222.302	18146.69
222.375	18180.09
222.448	18229.24
222.521	18266.59
222.594	18306.1
222.667	18324.8
222.74	18367.88
222.814	18390.87
222.887	18424.6
222.96	18473.32
223.033	18518.62
223.106	18560.6
223.179	18609.51
223.252	18643.68
223.325	18680.06
223.398	18709.26
223.471	18761.93
223.544	18787.62
223.617	18816.39
223.69	18854.6
223.763	18871.85
223.837	18909.78
223.91	18939.9
223.983	18946.07
224.056	18954.6
224.129	18986.64
224.202	19030.45
224.275	19050.45
224.348	19060.28
224.42	19067.36
224.493	19072.18
224.566	19084.81
224.639	19109.53
224.712	19116.51
224.785	19141.38
224.858	19162.05
224.931	19180.46
225.004	19185.43
225.077	19210.97
225.15	19206.87
225.223	19220.46
225.296	19265.28
225.369	19264.36
225.442	19277.23
225.514	19298.58
225.587	19323.92
225.66	19342.33
225.733	19355.87
225.806	19382.47
225.879	19402.18
225.952	19411.63
226.025	19450.13
226.097	19484.11
226.17	19501.5
226.243	19501.12
226.316	19515
226.389	19530.03
226.461	19555.19
226.534	19579.43
226.607	19589.6
226.68	19632.2
226.753	19655.81
226.825	19645.16
226.898	19676.48
226.971	19693.64
227.044	19710.5
227.117	19729.3
227.189	19759.71
227.262	19788.38
227.335	19801.49
227.407	19817.05
227.48	19840.71
227.553	19847.32
227.626	19840.76
227.698	19848.81
227.771	19862.35
227.844	19858.83
227.916	19873.63
227.989	19857.34
228.062	19858.83
228.134	19888.52
228.207	19894.01
228.28	19893.48
228.352	19897.44
228.425	19909.1
228.498	19928.95
228.57	19933.77
228.643	19958.88
228.716	19947.55
228.788	19950.06
228.861	19952.28
228.934	19973.48
229.006	19975.79
229.079	19968.18
229.151	19968.08
229.224	19956.08
229.296	19967.99
229.369	20001
229.442	20023.74
229.514	20029.38
229.587	20046.2
229.659	20038.49
229.732	20051.26
229.804	20065.86
229.877	20100.75
229.949	20108.03
230.022	20123.12
230.094	20120.42
230.167	20124.08
230.239	20119.02
230.312	20121.67
230.384	20150.83
230.457	20153
230.529	20161.14
230.602	20167.31
230.674	20169.14
230.747	20188.99
230.819	20206.01
230.892	20178.1
230.964	20177.14
231.037	20187.02
231.109	20183.31
231.181	20187.89
231.254	20169.91
231.326	20167.84
231.399	20156.13
231.471	20141.81
231.544	20104.75
231.616	20113.91
231.688	20102.87
231.761	20096.61
231.833	20084.03
231.905	20058.3
231.978	20047.16
232.05	20038.59
232.122	20039.79
232.195	20044.71
232.267	20053.72
232.339	20038.63
232.412	20044.61
232.484	20030.78
232.556	20018.73
232.629	20031.65
232.701	20034.92
232.773	20034.2
232.846	20016.56
232.918	20017.29
232.99	20017.24
233.062	20029.38
233.135	20023.99
233.207	20005.14
233.279	20008.56
233.351	20004.37
233.424	19986.06
233.496	19971.55
233.568	19976.28
233.64	19952.57
233.713	19936.47
233.785	19920.9
233.857	19901.87
233.929	19874.16
234.001	19878.83
234.074	19883.56
234.146	19851.03
234.218	19830.35
234.29	19803.56
234.362	19782.55
234.434	19743.27
234.507	19708.34
234.579	19679.76
234.651	19655.23
234.723	19647.33
234.795	19633.01
234.867	19610.9
234.939	19604.87
235.012	19591.81
235.084	19570.99
235.156	19559.62
235.228	19538.95
235.3	19506.61
235.372	19501.79
235.444	19494.66
235.516	19453.89
235.588	19430.18
235.66	19417.17
235.732	19385.12
235.804	19429.56
235.876	19429.89
235.948	19427.97
236.02	19415.87
236.092	19387.39
236.164	19370.33
236.236	19339.63
236.308	19315.97
236.38	19298.53
236.452	19272.79
236.524	19258.63
236.596	19251.88
236.668	19234.97
236.74	19216.41
236.812	19208.03
236.884	19188.99
236.956	19162.54
237.028	19134.35
237.1	19107.12
237.172	19093.63
237.244	19094.59
237.316	19038.98
237.388	19009.15
237.46	18970.55
237.532	18960.38
237.604	18926.36
237.675	18919.37
237.747	18905.73
237.819	18866.51
237.891	18841.78
237.963	18808.24
238.035	18769.89
238.107	18703.58
238.178	18689.7
238.25	18660.45
238.322	18646.23
238.394	18598.28
238.466	18575.73
238.538	18549.18
238.609	18521.42
238.681	18467.64
238.753	18423.78
238.825	18386.29
238.897	18353.38
238.968	18343.11
239.04	18301.29
239.112	18306.2
239.184	18267.99
239.255	18232.81
239.327	18216.9
239.399	18191.51
239.471	18173.87
239.542	18146.69
239.614	18136.43
239.686	18085.44
239.758	18068.72
239.829	18032.57
239.901	18016.29
239.973	17994.07
240.044	17972.96
240.116	17939.95
240.188	17913.73
240.259	17893.3
240.331	17857.98
240.403	17829.54
240.474	17788.77
240.546	17751.38
240.618	17700.44
240.689	17658.46
240.761	17631.76
240.833	17620.34
240.904	17588.63
240.976	17549.79
241.048	17519.86
241.119	17503.09
241.191	17482.08
241.262	17466.22
241.334	17426.9
241.405	17392.54
241.477	17349.79
241.549	17317.02
241.62	17292.2
241.692	17268.3
241.763	17236.78
241.835	17200.73
241.906	17172.97
241.978	17127.23
242.049	17111.57
242.121	17089.79
242.192	17073.98
242.264	17027.9
242.335	16970.36
242.407	16939.47
242.478	16911.18
242.55	16882.93
242.621	16839.56
242.693	16796.33
242.764	16749.97
242.836	16715.31
242.907	16694.69
242.979	16667.36
243.05	16634.1
243.122	16607.74
243.193	16573.42
243.264	16523.97
243.336	16495.73
243.407	16480.41
243.479	16463.97
243.55	16433.85
243.622	16415.29
243.693	16372.64
243.764	16354.66
243.836	16312.29
243.907	16281.74
243.978	16246.12
244.05	16222.4
244.121	16176.37
244.192	16159.07
244.264	16119.21
244.335	16091.11
244.407	16033.8
244.478	16000.64
244.549	15965.75
244.62	15912.73
244.692	15880.14
244.763	15862.02
244.834	15834.21
244.906	15780.95
244.977	15761.62
245.048	15745.23
245.119	15696.02
245.191	15660.6
245.262	15606.95
245.333	15594.95
245.405	15562.31
245.476	15527.32
245.547	15493.58
245.618	15474.2
245.689	15442.92
245.761	15412.99
245.832	15381.56
245.903	15365.32
245.974	15342.9
246.045	15315.67
246.117	15310.12
246.188	15272.14
246.259	15230.3
246.33	15190.2
246.401	15158.96
246.473	15106.32
246.544	15067.91
246.615	15052.1
246.686	15027.46
246.757	15021.25
246.828	14977.19
246.899	14962.53
246.97	14923.92
247.042	14888.4
247.113	14861.21
247.184	14860.2
247.255	14822.65
247.326	14786.35
247.397	14754.68
247.468	14726.96
247.539	14695.82
247.61	14650.65
247.681	14635.42
247.752	14614.36
247.823	14576.08
247.894	14554.87
247.965	14518.96
248.037	14486.52
248.108	14441.83
248.179	14409.58
248.25	14370.05
248.321	14347.06
248.392	14307.82
248.463	14304.73
248.534	14276.78
248.605	14259.42
248.675	14216.91
248.746	14202.06
248.817	14185.67
248.888	14156.7
248.959	14109.41
249.03	14087.81
249.101	14055.32
249.172	14017.19
249.243	13966.96
249.314	13957.41
249.385	13932.97
249.456	13916.63
249.527	13889.97
249.598	13863.41
249.669	13835.02
249.739	13813.52
249.81	13794.23
249.881	13754.27
249.952	13718.79
250.023	13694.16
250.094	13649.28
250.165	13613.6
250.235	13580.73
250.306	13553.54
250.377	13524.08
250.448	13499.55
250.519	13447.29
250.59	13448.88
250.66	13417.26
250.731	13412.58
250.802	13385.44
250.873	13360.86
250.944	13339.5
251.014	13298.09
251.085	13301.03
251.156	13278.04
251.227	13270.28
251.297	13257.55
251.368	13241.69
251.439	13235.95
251.51	13217.59
251.58	13183.6
251.651	13153.52
251.722	13138.09
251.792	13100.64
251.863	13069.4
251.934	13069.26
252.005	13077.79
252.075	13040.81
252.146	13033
252.217	13024.13
252.287	13012.52
252.358	12992.17
252.429	12978.82
252.499	12957.95
252.57	12935.63
252.641	12922.85
252.711	12896.82
252.782	12860.43
252.852	12851.94
252.923	12830.64
252.994	12812.94
253.064	12808.08
253.135	12778.86
253.205	12748.78
253.276	12748.16
253.347	12744.78
253.417	12715.09
253.488	12692.86
253.558	12670.74
253.629	12644.71
253.699	12622.87
253.77	12607.73
253.841	12573.32
253.911	12556.16
253.982	12537.79
254.052	12527.86
254.123	12517.98
254.193	12501.01
254.264	12518.32
254.334	12490.74
254.405	12449.77
254.475	12414.92
254.546	12387.49
254.616	12380.21
254.687	12359.77
254.757	12335.09
254.827	12310.85
254.898	12297.16
254.968	12273.39
255.039	12241.97
255.109	12232.76
255.18	12202.25
255.25	12154.67
255.321	12144.69
255.391	12116.45
255.461	12120.3
255.532	12062.84
255.602	12034.89
255.673	11989
255.743	11953.04
255.813	11908.17
255.884	11899.78
255.954	11886.77
256.024	11883.25
256.095	11865.89
256.165	11840.01
256.235	11829.79
256.306	11808.44
256.376	11790.51
256.446	11781.69
256.517	11774.94
256.587	11761.64
256.657	11746.17
256.728	11727.56
256.798	11714.31
256.868	11683.65
256.938	11651.07
257.009	11652.61
257.079	11637.77
257.149	11649.14
257.219	11610.25
257.29	11604.61
257.36	11572.99
257.43	11562.63
257.5	11528.36
257.571	11494.82
257.641	11490.57
257.711	11462.09
257.781	11447.34
257.852	11433.6
257.922	11395.39
257.992	11370.85
258.062	11348.78
258.132	11337.26
258.202	11324.2
258.273	11305.94
258.343	11315.91
258.413	11288.06
258.483	11262.22
258.553	11223.24
258.623	11193.55
258.693	11187.96
258.764	11188.92
258.834	11189.07
258.904	11172.39
258.974	11140.15
259.044	11130.23
259.114	11116.49
259.184	11101.79
259.254	11086.13
259.324	11051.77
259.394	11038.66
259.464	11046.85
259.535	11016.98
259.605	10999
259.675	10973.85
259.745	10957.41
259.815	10925.13
259.885	10905.23
259.955	10916.45
260.025	10900.84
260.095	10886.77
260.165	10867.4
260.235	10864.03
260.305	10831.64
260.375	10798.44
260.445	10813.24
260.515	10818.44
260.585	10805.48
260.655	10781.38
260.725	10767.8
260.795	10758.01
260.865	10765.87
260.934	10734.4
261.004	10741.1
261.074	10727.56
261.144	10734.64
261.214	10731.51
261.284	10712
261.354	10711.71
261.424	10685.3
261.494	10690.55
261.564	10667.76
261.634	10662.02
261.703	10623.19
261.773	10615.14
261.843	10609.55
261.913	10585.27
