Data from 20250703_urea_0.1M_MAYP1162681_18-41-05-556.txt Node
Date: Thu Jul 03 18:41:05 BST 2025
User: adleo
Spectrometer: MAYP116268
Trigger mode: 0
Integration Time (sec): 1.000000E0
Scans to average: 1
Electric dark correction enabled: true
Nonlinearity correction enabled: true
Boxcar width: 10
XAxis mode: Wavelengths
Number of Pixels in Spectrum: 2068
>>>>>Begin Spectral Data<<<<<
179.565	1356.25
179.642	1419.95
179.718	1473.31
179.795	1517.13
179.871	1549.18
179.948	1568.73
180.024	1593.62
180.101	1621.85
180.177	1637.8
180.254	1665.14
180.33	1692.26
180.407	1758.99
180.483	1865.18
180.56	1967.34
180.636	2063.92
180.712	2050.12
180.789	2064.44
180.865	2082.65
180.942	2089.5
181.018	2098.39
181.095	2113.38
181.171	2118.9
181.248	2120.14
181.324	2135.08
181.4	2144.55
181.477	2162.67
181.553	2178.18
181.63	2199.64
181.706	2216.82
181.782	2227.8
181.859	2224.8
181.935	2230.52
182.011	2224.81
182.088	2241.6
182.164	2264.12
182.24	2279.58
182.317	2288.81
182.393	2287.1
182.469	2301
182.546	2316.99
182.622	2323.51
182.698	2322.32
182.775	2332.93
182.851	2347.63
182.927	2340.35
183.003	2332.98
183.08	2324.32
183.156	2333.31
183.232	2331.74
183.308	2318.36
183.385	2326.03
183.461	2348.83
183.537	2347.4
183.613	2361.58
183.69	2354.87
183.766	2343.25
183.842	2350.96
183.918	2356.77
183.995	2371.48
184.071	2373.19
184.147	2368.05
184.223	2355.58
184.299	2368.25
184.375	2357.16
184.452	2363.49
184.528	2417.11
184.604	2429.67
184.68	2441.24
184.756	2448.19
184.832	2450.71
184.908	2455.9
184.985	2457.85
185.061	2436.81
185.137	2448.62
185.213	2436.77
185.289	2437.2
185.365	2426.25
185.441	2424.34
185.517	2440.59
185.593	2433.63
185.669	2433.02
185.745	2443.2
185.822	2463.33
185.898	2450.29
185.974	2460.14
186.05	2455.61
186.126	2419.28
186.202	2410.76
186.278	2408.95
186.354	2401.29
186.43	2407.19
186.506	2402.62
186.582	2399.91
186.658	2408.43
186.734	2384.82
186.81	2387.68
186.886	2392.34
186.962	2407.76
187.038	2403.48
187.114	2395.1
187.19	2405.9
187.266	2391.53
187.341	2389.91
187.417	2379.39
187.493	2381.34
187.569	2385.67
187.645	2376.3
187.721	2361.39
187.797	2372.58
187.873	2375.43
187.949	2368.3
188.025	2366.49
188.101	2372.15
188.176	2379.05
188.252	2373.34
188.328	2383.43
188.404	2384.43
188.48	2377.81
188.556	2372.48
188.632	2372.14
188.707	2373.43
188.783	2371.81
188.859	2368.53
188.935	2359.15
189.011	2369.58
189.086	2363.82
189.162	2351.49
189.238	2349.44
189.314	2350.35
189.39	2341.87
189.465	2331.88
189.541	2350.82
189.617	2330.6
189.693	2323.22
189.768	2326.84
189.844	2356.98
189.92	2347.94
189.996	2355.66
190.071	2368.98
190.147	2365.32
190.223	2373.94
190.298	2365.51
190.374	2350.7
190.45	2362.74
190.526	2371.5
190.601	2363.89
190.677	2362.27
190.753	2392.6
190.828	2396.74
190.904	2411.03
190.98	2429.6
191.055	2445.88
191.131	2437.93
191.207	2461.01
191.282	2473.91
191.358	2463.82
191.433	2443.53
191.509	2457.99
191.585	2456.94
191.66	2454.85
191.736	2465.51
191.811	2456.23
191.887	2471.33
191.963	2494.32
192.038	2499.75
192.114	2500.18
192.189	2507.03
192.265	2506.99
192.34	2485.69
192.416	2485.36
192.491	2480.22
192.567	2479.69
192.642	2479.22
192.718	2477.64
192.793	2465.98
192.869	2460.22
192.944	2463.22
193.02	2474.36
193.095	2479.41
193.171	2483.36
193.246	2487.69
193.322	2483.74
193.397	2485.79
193.473	2470.12
193.548	2452.5
193.624	2462.31
193.699	2460.69
193.775	2475.6
193.85	2479.17
193.925	2487.89
194.001	2487.22
194.076	2481.08
194.152	2470.46
194.227	2463.41
194.302	2452.56
194.378	2456.8
194.453	2455.42
194.529	2467.61
194.604	2450.85
194.679	2442.89
194.755	2423.33
194.83	2432.96
194.905	2432.39
194.981	2440.43
195.056	2435.72
195.131	2441.77
195.207	2439.67
195.282	2430.62
195.357	2408.53
195.433	2422.33
195.508	2410.43
195.583	2415.95
195.659	2428.72
195.734	2437.24
195.809	2437.81
195.884	2447.85
195.96	2445.52
196.035	2461.99
196.11	2455.33
196.185	2467.18
196.261	2471.7
196.336	2508.13
196.411	2495.03
196.486	2499.27
196.561	2493.84
196.637	2501.55
196.712	2521.8
196.787	2526.18
196.862	2542.56
196.937	2555.79
197.013	2562.18
197.088	2573.27
197.163	2596.42
197.238	2617.35
197.313	2618.11
197.388	2633.16
197.464	2668.95
197.539	2683.71
197.614	2677
197.689	2695.39
197.764	2714.92
197.839	2736.31
197.914	2726.64
197.989	2752.42
198.065	2764.71
198.14	2819.4
198.215	2851.14
198.29	2862.72
198.365	2874.69
198.44	2887.84
198.515	2918.25
198.59	2936.13
198.665	2968.92
198.74	2984.14
198.815	2987
198.89	3013.83
198.965	3046.22
199.04	3039.83
199.115	3056.99
199.19	3101.61
199.265	3100.51
199.34	3110.29
199.415	3149.22
199.49	3173.25
199.565	3181.17
199.64	3210.5
199.715	3202.86
199.79	3208.34
199.865	3214.73
199.94	3214.45
200.015	3250.76
200.09	3258.15
200.165	3265.12
200.24	3271.04
200.315	3315.26
200.39	3328
200.464	3334.68
200.539	3337.83
200.614	3353.24
200.689	3379.58
200.764	3388.13
200.839	3409.44
200.914	3416.36
200.989	3403.71
201.063	3419.98
201.138	3402.34
201.213	3401.24
201.288	3386.59
201.363	3396.85
201.438	3398.62
201.512	3417.03
201.587	3397.36
201.662	3403
201.737	3416.6
201.812	3420.99
201.886	3379.67
201.961	3392.47
202.036	3380.26
202.111	3375.91
202.186	3349.07
202.26	3331.45
202.335	3306.02
202.41	3301.2
202.485	3286.75
202.559	3269.72
202.634	3242
202.709	3256.49
202.784	3241.13
202.858	3240.23
202.933	3219.9
203.008	3213.99
203.082	3195.43
203.157	3199.87
203.232	3158.38
203.306	3140.82
203.381	3119.83
203.456	3104.71
203.53	3088.24
203.605	3073.51
203.68	3060.19
203.754	3065.68
203.829	3062.53
203.904	3060.91
203.978	3066.49
204.053	3085.81
204.127	3089.05
204.202	3109.04
204.277	3111.23
204.351	3128.21
204.426	3146.78
204.5	3162.28
204.575	3155.03
204.65	3196.6
204.724	3222.58
204.799	3267.74
204.873	3300.06
204.948	3335.28
205.022	3364.05
205.097	3399.45
205.171	3463.55
205.246	3519
205.32	3568.11
205.395	3621.65
205.469	3667.15
205.544	3732.67
205.618	3776.96
205.693	3855.15
205.767	3908.09
205.842	4003.95
205.916	4071.69
205.991	4138.53
206.065	4224.22
206.14	4327.86
206.214	4405.87
206.289	4483.84
206.363	4583.9
206.438	4678.69
206.512	4782.78
206.586	4907.22
206.661	5016.94
206.735	5103
206.81	5216.11
206.884	5343.03
206.958	5444.63
207.033	5583.85
207.107	5707.09
207.181	5858.95
207.256	5976.34
207.33	6125.68
207.405	6262.48
207.479	6410.41
207.553	6548.84
207.628	6662.98
207.702	6807.43
207.776	6935.23
207.851	7077.68
207.925	7238.2
207.999	7376.07
208.073	7520.47
208.148	7665.63
208.222	7802
208.296	7976.39
208.371	8139.68
208.445	8301.46
208.519	8484.37
208.593	8644.37
208.668	8796.41
208.742	8956.2
208.816	9109.35
208.89	9281.39
208.965	9436.55
209.039	9599.76
209.113	9775.38
209.187	9958.74
209.261	10109.48
209.336	10294.15
209.41	10470.42
209.484	10627.78
209.558	10822.09
209.632	11001.72
209.707	11174.28
209.781	11358.36
209.855	11540.09
209.929	11722.52
210.003	11889.52
210.077	12043.36
210.151	12248.84
210.226	12436.97
210.3	12630.45
210.374	12811.54
210.448	12978.52
210.522	13147.42
210.596	13314.69
210.67	13478.93
210.744	13692.27
210.818	13885.33
210.892	14064.85
210.966	14209.51
211.041	14373.65
211.115	14516.48
211.189	14681.96
211.263	14847.59
211.337	15008.59
211.411	15167.17
211.485	15302.09
211.559	15464.1
211.633	15609.72
211.707	15718.45
211.781	15874.38
211.855	15971.74
211.929	16099.81
212.003	16210.96
212.077	16358.39
212.151	16499.32
212.225	16644.92
212.299	16763.58
212.373	16885.46
212.447	17003.83
212.52	17165.76
212.594	17300.23
212.668	17433.19
212.742	17547.8
212.816	17662.11
212.89	17770.3
212.964	17885.04
213.038	18007.21
213.112	18133.66
213.186	18263.73
213.26	18360.07
213.333	18418.43
213.407	18538.08
213.481	18661.65
213.555	18781.45
213.629	18873.2
213.703	18963.42
213.777	19071.51
213.85	19146.15
213.924	19275.79
213.998	19381.32
214.072	19472.26
214.146	19564.98
214.219	19660.88
214.293	19755.04
214.367	19852.48
214.441	19953.35
214.515	20039.85
214.588	20099.75
214.662	20146.93
214.736	20209.15
214.81	20307.22
214.883	20393.72
214.957	20458.4
215.031	20529.62
215.105	20583.41
215.178	20647.74
215.252	20731.26
215.326	20779.31
215.4	20841.05
215.473	20858.79
215.547	20906.98
215.621	20964.15
215.694	21029.07
215.768	21070.95
215.842	21115.63
215.915	21170.33
215.989	21210.29
216.063	21270.3
216.136	21343.18
216.21	21415.33
216.284	21499.63
216.357	21566.25
216.431	21636.62
216.504	21705.06
216.578	21788.89
216.652	21858.25
216.725	21920.58
216.799	21986.28
216.873	22043.16
216.946	22099.85
217.02	22155.18
217.093	22209.32
217.167	22249.81
217.24	22287.08
217.314	22337.02
217.387	22389.56
217.461	22428.76
217.535	22501.07
217.608	22530.24
217.682	22567.79
217.755	22620.92
217.829	22652.98
217.902	22696.62
217.976	22742.32
218.049	22778.43
218.123	22799.51
218.196	22850.18
218.27	22888.8
218.343	22902.97
218.417	22955.72
218.49	22996.46
218.563	23063.29
218.637	23102.44
218.71	23158.48
218.784	23211.57
218.857	23262.82
218.931	23297.35
219.004	23335.97
219.077	23366.79
219.151	23404.54
219.224	23438.49
219.298	23470.27
219.371	23519.7
219.444	23534.31
219.518	23572.99
219.591	23616.05
219.665	23676.44
219.738	23716.08
219.811	23740.87
219.885	23791.17
219.958	23824.83
220.031	23863.03
220.105	23898.19
220.178	23939.23
220.251	23954.76
220.325	23988.87
220.398	24020.17
220.471	24065.07
220.544	24116.34
220.618	24137.42
220.691	24172.2
220.764	24205.24
220.838	24246.43
220.911	24265.97
220.984	24328.77
221.057	24355.3
221.131	24381.25
221.204	24378.94
221.277	24411.84
221.35	24464.76
221.424	24484.44
221.497	24495
221.57	24515.7
221.643	24546.19
221.716	24567.95
221.79	24591.39
221.863	24605.14
221.936	24620.53
222.009	24630.03
222.082	24644.99
222.155	24660.09
222.229	24694.54
222.302	24714.65
222.375	24724.3
222.448	24746.69
222.521	24737.81
222.594	24747.46
222.667	24740.46
222.74	24764.3
222.814	24784.37
222.887	24783.41
222.96	24809.51
223.033	24840.29
223.106	24852.06
223.179	24865.48
223.252	24877.2
223.325	24895.63
223.398	24901.9
223.471	24916.57
223.544	24940.84
223.617	24950.78
223.69	24961.15
223.763	24945.47
223.837	24953.38
223.91	24962.55
223.983	24946.82
224.056	24940.89
224.129	24947.31
224.202	24968.29
224.275	24953.82
224.348	24932.25
224.42	24920.14
224.493	24896.93
224.566	24883.42
224.639	24887.86
224.712	24868.75
224.785	24858.28
224.858	24843.42
224.931	24835.22
225.004	24820.07
225.077	24796.77
225.15	24755.32
225.223	24751.7
225.296	24776.7
225.369	24748.48
225.442	24723.19
225.514	24716.68
225.587	24723.39
225.66	24720.64
225.733	24714.85
225.806	24720.4
225.879	24715.28
225.952	24697.38
226.025	24701.53
226.097	24702.4
226.17	24690.34
226.243	24660.48
226.316	24648.66
226.389	24630.57
226.461	24622.65
226.534	24615.9
226.607	24607.99
226.68	24622.51
226.753	24600.8
226.825	24551.59
226.898	24559.98
226.971	24552.5
227.044	24543.48
227.117	24521.05
227.189	24508.22
227.262	24499.44
227.335	24486.51
227.407	24457.18
227.48	24443.34
227.553	24421.82
227.626	24399.92
227.698	24376.67
227.771	24365.72
227.844	24331.32
227.916	24329.4
227.989	24292.45
228.062	24264.76
228.134	24262.59
228.207	24245.08
228.28	24219.95
228.352	24209.67
228.425	24187.39
228.498	24169.69
228.57	24142.67
228.643	24138.67
228.716	24110.02
228.788	24089.66
228.861	24064.63
228.934	24062.12
229.006	24045.43
229.079	24014.37
229.151	23990.3
229.224	23960.3
229.296	23944.48
229.369	23969.08
229.442	23953.79
229.514	23935.32
229.587	23936.91
229.659	23901.22
229.732	23885.45
229.804	23880.72
229.877	23880.58
229.949	23871.7
230.022	23881.64
230.094	23868.18
230.167	23848.84
230.239	23813.83
230.312	23789.67
230.384	23790.2
230.457	23771.39
230.529	23753.93
230.602	23747.91
230.674	23731.94
230.747	23716.46
230.819	23703.88
230.892	23648.12
230.964	23633.22
231.037	23617.45
231.109	23586.15
231.181	23574.92
231.254	23534.46
231.326	23502.34
231.399	23469.31
231.471	23438.35
231.544	23387.23
231.616	23375.07
231.688	23347.35
231.761	23332.06
231.833	23296.96
231.905	23239.72
231.978	23217.49
232.05	23192.46
232.122	23166.81
232.195	23133.39
232.267	23126.84
232.339	23090.62
232.412	23078.71
232.484	23036.86
232.556	23007.55
232.629	23008.08
232.701	22974.61
232.773	22945.35
232.846	22914.44
232.918	22891.78
232.99	22859.38
233.062	22840.38
233.135	22803.4
233.207	22767.2
233.279	22739.43
233.351	22721.92
233.424	22690.44
233.496	22646.81
233.568	22641.61
233.64	22586.65
233.713	22553.86
233.785	22525.37
233.857	22500.45
233.929	22451.42
234.001	22442.01
234.074	22438.74
234.146	22382.67
234.218	22358.71
234.29	22338.56
234.362	22295.75
234.434	22249.42
234.507	22209.89
234.579	22149.83
234.651	22115.12
234.723	22084.32
234.795	22060.46
234.867	22019.48
234.939	22006.37
235.012	21985.84
235.084	21959.37
235.156	21943.7
235.228	21906.59
235.3	21860.75
235.372	21830.76
235.444	21808.01
235.516	21743.81
235.588	21696.37
235.66	21666.1
235.732	21628.12
235.804	21648.03
235.876	21640.46
235.948	21626.19
236.02	21589.42
236.092	21569.56
236.164	21541.36
236.236	21498.61
236.308	21450.56
236.38	21419.13
236.452	21376.38
236.524	21337.87
236.596	21312.23
236.668	21285.96
236.74	21254
236.812	21231.3
236.884	21207.49
236.956	21178.91
237.028	21139.01
237.1	21087.53
237.172	21066.28
237.244	21046.47
237.316	20969.44
237.388	20923.8
237.46	20871.22
237.532	20852.43
237.604	20799.22
237.675	20775.27
237.747	20755.6
237.819	20724.23
237.891	20687.46
237.963	20640.04
238.035	20603.94
238.107	20523.84
238.178	20501.81
238.25	20461.24
238.322	20440.56
238.394	20380.08
238.466	20324.95
238.538	20305.33
238.609	20281.67
238.681	20218.11
238.753	20172.13
238.825	20137.72
238.897	20102.06
238.968	20089.91
239.04	20046.97
239.112	20043.02
239.184	19993.39
239.255	19948.42
239.327	19914.93
239.399	19876.96
239.471	19855.9
239.542	19820.24
239.614	19804.53
239.686	19739.23
239.758	19713.25
239.829	19660.72
239.901	19636.87
239.973	19611.71
240.044	19581.16
240.116	19543.77
240.188	19503.43
240.259	19463.63
240.331	19416.4
240.403	19391.73
240.474	19339.49
240.546	19291.25
240.618	19225.47
240.689	19185.47
240.761	19156.03
240.833	19141.33
240.904	19101.48
240.976	19056.37
241.048	19020.28
241.119	18986.45
241.191	18952.24
241.262	18938.74
241.334	18898.84
241.405	18863.04
241.477	18818.75
241.549	18773.69
241.62	18735.77
241.692	18708.39
241.763	18678.9
241.835	18647.96
241.906	18605.41
241.978	18539.73
242.049	18523.78
242.121	18509.51
242.192	18487.3
242.264	18428.7
242.335	18368.37
242.407	18343.69
242.478	18299.55
242.55	18268.03
242.621	18221.82
242.693	18181.58
242.764	18123.36
242.836	18092.04
242.907	18059.51
242.979	18022.84
243.05	17987.03
243.122	17960.05
243.193	17922.31
243.264	17854.46
243.336	17813.59
243.407	17780.73
243.479	17769.79
243.55	17733.69
243.622	17703.14
243.693	17666.8
243.764	17661.74
243.836	17607.57
243.907	17566.7
243.978	17533.16
244.05	17492.25
244.121	17421.98
244.192	17401.79
244.264	17358.75
244.335	17311.67
244.407	17255.67
244.478	17239.14
244.549	17198.46
244.62	17146.03
244.692	17109.83
244.763	17095.47
244.834	17055.52
244.906	17013.06
244.977	16981.49
245.048	16965.78
245.119	16908.43
245.191	16858.4
245.262	16796.47
245.333	16788.28
245.405	16756.81
245.476	16723.84
245.547	16686.59
245.618	16684.23
245.689	16642.87
245.761	16610.73
245.832	16575.88
245.903	16554.29
245.974	16517.13
246.045	16485.03
246.117	16465.51
246.188	16421.46
246.259	16373.74
246.33	16332.73
246.401	16296.92
246.473	16251.03
246.544	16200.86
246.615	16182.02
246.686	16139.7
246.757	16118.49
246.828	16068.41
246.899	16051.49
246.97	16005.46
247.042	15965.41
247.113	15935.48
247.184	15929.26
247.255	15892.77
247.326	15868.91
247.397	15833.97
247.468	15799.51
247.539	15768.18
247.61	15719.98
247.681	15703.2
247.752	15688.45
247.823	15652.01
247.894	15623.91
247.965	15587.47
248.037	15557.06
248.108	15506.25
248.179	15476.13
248.25	15446.2
248.321	15433.71
248.392	15386.33
248.463	15388.21
248.534	15368.35
248.605	15352.49
248.675	15320.05
248.746	15292.53
248.817	15266.31
248.888	15244.18
248.959	15197.23
249.03	15181.04
249.101	15162.19
249.172	15126.52
249.243	15072.1
249.314	15059.81
249.385	15037.2
249.456	15019.17
249.527	14984.08
249.598	14975.6
249.669	14953.37
249.739	14927.63
249.81	14888.78
249.881	14850.51
249.952	14816.33
250.023	14778.68
250.094	14727.54
250.165	14683.43
250.235	14650.22
250.306	14622.6
250.377	14580.57
250.448	14558.92
250.519	14503.34
250.59	14489.6
250.66	14455.67
250.731	14447.33
250.802	14417.97
250.873	14388.23
250.944	14357.91
251.014	14318.38
251.085	14309.7
251.156	14289.94
251.227	14281.74
251.297	14280.01
251.368	14266.46
251.439	14252.48
251.51	14246.07
251.58	14216.66
251.651	14187.26
251.722	14180.75
251.792	14133.65
251.863	14104.54
251.934	14102.99
252.005	14112.92
252.075	14079.61
252.146	14068
252.217	14056.43
252.287	14041.97
252.358	14018.25
252.429	14013.23
252.499	13991.98
252.57	13969.41
252.641	13952.88
252.711	13920.05
252.782	13880.86
252.852	13883.22
252.923	13854.49
252.994	13822.48
253.064	13811.15
253.135	13775.67
253.205	13749.4
253.276	13743.81
253.347	13741.01
253.417	13702.3
253.488	13669.86
253.558	13642.62
253.629	13617.41
253.699	13597.36
253.77	13573.88
253.841	13547.42
253.911	13522.88
253.982	13497.71
254.052	13479.01
254.123	13454.47
254.193	13431
254.264	13441.6
254.334	13392.24
254.405	13359.99
254.475	13333.57
254.546	13309.47
254.616	13302.38
254.687	13277.31
254.757	13267.34
254.827	13242.75
254.898	13225.15
254.968	13200.76
255.039	13175.41
255.109	13162.97
255.18	13123.49
255.25	13076.1
255.321	13062.27
255.391	13025.97
255.461	13032.57
255.532	12985.38
255.602	12960.12
255.673	12919.29
255.743	12885.78
255.813	12848.33
255.884	12833.72
255.954	12822.06
256.024	12817.67
256.095	12802.73
256.165	12768.84
256.235	12749.65
256.306	12724.73
256.376	12711.33
256.446	12705.49
256.517	12689.01
256.587	12679.46
256.657	12668.47
256.728	12657.87
256.798	12639.12
256.868	12616.17
256.938	12582.52
257.009	12575.68
257.079	12561.8
257.149	12571.49
257.219	12523.86
257.29	12513.4
257.36	12469.1
257.43	12453.82
257.5	12414.44
257.571	12382.43
257.641	12371.97
257.711	12336.1
257.781	12319.04
257.852	12308.58
257.922	12255.99
257.992	12243.02
258.062	12218.97
258.132	12208.08
258.202	12191.88
258.273	12177.66
258.343	12183.06
258.413	12151.34
258.483	12132.3
258.553	12106.71
258.623	12079.95
258.693	12074.8
258.764	12074.12
258.834	12074.75
258.904	12059.61
258.974	12028.72
259.044	12013.49
259.114	12006.98
259.184	11987.26
259.254	11967.98
259.324	11921.08
259.394	11916.07
259.464	11913.28
259.535	11894.81
259.605	11869.8
259.675	11837.75
259.745	11821.79
259.815	11786.41
259.885	11769.4
259.955	11777.79
260.025	11750.89
260.095	11730.41
260.165	11719.51
260.235	11717.73
260.305	11688.14
260.375	11660.28
260.445	11670.88
260.515	11670.59
260.585	11665.15
260.655	11654.54
260.725	11642.69
260.795	11632.61
260.865	11635.51
260.934	11605.33
261.004	11591.55
261.074	11575.02
261.144	11579.5
261.214	11570.87
261.284	11552.12
261.354	11547.59
261.424	11516.21
261.494	11514.14
261.564	11493.03
261.634	11481.03
261.703	11433.99
261.773	11431.24
261.843	11423.92
