Data from 20250703_urea_0.1M_MAYP1162681_17-41-04-830.txt Node
Date: Thu Jul 03 17:41:04 BST 2025
User: adleo
Spectrometer: MAYP116268
Trigger mode: 0
Integration Time (sec): 1.000000E0
Scans to average: 1
Electric dark correction enabled: true
Nonlinearity correction enabled: true
Boxcar width: 10
XAxis mode: Wavelengths
Number of Pixels in Spectrum: 2068
>>>>>Begin Spectral Data<<<<<
179.565	1331.1
179.642	1396.23
179.718	1445.35
179.795	1489.6
179.871	1525.74
179.948	1543.27
180.024	1568.83
180.101	1594.17
180.177	1610.73
180.254	1637.53
180.33	1662.2
180.407	1730.6
180.483	1836.32
180.56	1935.24
180.636	2029.82
180.712	2014.84
180.789	2029.25
180.865	2042.99
180.942	2049.93
181.018	2061.87
181.095	2078.09
181.171	2081.99
181.248	2081.85
181.324	2099.45
181.4	2106.21
181.477	2119.86
181.553	2136.32
181.63	2156.58
181.706	2172.24
181.782	2180.51
181.859	2176.23
181.935	2181.03
182.011	2173.37
182.088	2192.79
182.164	2214.54
182.24	2225.48
182.317	2238.8
182.393	2235.47
182.469	2252.55
182.546	2268.3
182.622	2275.06
182.698	2267.87
182.775	2280.77
182.851	2298.19
182.927	2287.91
183.003	2282.29
183.08	2273.2
183.156	2283.96
183.232	2280.2
183.308	2271.25
183.385	2281.29
183.461	2303.13
183.537	2304.13
183.613	2316.17
183.69	2301.99
183.766	2287.9
183.842	2298.89
183.918	2300.89
183.995	2319.74
184.071	2323.6
184.147	2317.98
184.223	2303.99
184.299	2317.04
184.375	2306.57
184.452	2311.33
184.528	2363.41
184.604	2375.73
184.68	2388.82
184.756	2395.15
184.832	2402.62
184.908	2404.91
184.985	2403.24
185.061	2384.92
185.137	2397.44
185.213	2386.16
185.289	2390.44
185.365	2386.02
185.441	2385.97
185.517	2399.82
185.593	2390.3
185.669	2387.87
185.745	2398.2
185.822	2418.71
185.898	2409.86
185.974	2420.99
186.05	2410.71
186.126	2376.2
186.202	2371.15
186.278	2365.96
186.354	2355.92
186.43	2359.87
186.506	2359.78
186.582	2360.06
186.658	2368.15
186.734	2344.07
186.81	2347.73
186.886	2349.49
186.962	2361.87
187.038	2356.54
187.114	2347.35
187.19	2356.01
187.266	2345.54
187.341	2344.92
187.417	2333.88
187.493	2332.4
187.569	2332.97
187.645	2328.88
187.721	2316.27
187.797	2320.79
187.873	2327.93
187.949	2321.74
188.025	2314.27
188.101	2316.31
188.176	2322.64
188.252	2316.03
188.328	2324.73
188.404	2325.07
188.48	2320.21
188.556	2312.26
188.632	2312.03
188.707	2315.02
188.783	2313.02
188.859	2308.36
188.935	2297.03
189.011	2305.31
189.086	2300.56
189.162	2295.61
189.238	2292.85
189.314	2292.51
189.39	2286.42
189.465	2276.52
189.541	2296.23
189.617	2281.62
189.693	2276.01
189.768	2277.58
189.844	2304.43
189.92	2297.82
189.996	2306.15
190.071	2316.95
190.147	2315.71
190.223	2326.8
190.298	2318.24
190.374	2304.29
190.45	2315.52
190.526	2327.75
190.601	2323.99
190.677	2324.75
190.753	2351.9
190.828	2358.47
190.904	2373.28
190.98	2391.41
191.055	2405.17
191.131	2395.6
191.207	2417.83
191.282	2427.11
191.358	2415.68
191.433	2399.21
191.509	2410.86
191.585	2409.29
191.66	2413.62
191.736	2425
191.811	2412.81
191.887	2430.58
191.963	2456.62
192.038	2460.14
192.114	2457.19
192.189	2462.04
192.265	2460.05
192.34	2435.32
192.416	2431.04
192.491	2425.85
192.567	2429.28
192.642	2431.61
192.718	2429.71
192.793	2417.76
192.869	2415.43
192.944	2419.47
193.02	2431.47
193.095	2435.28
193.171	2439.66
193.246	2436.47
193.322	2433.18
193.397	2434.95
193.473	2421.18
193.548	2396.23
193.624	2403.9
193.699	2403.33
193.775	2419.76
193.85	2421.57
193.925	2434.09
194.001	2433.42
194.076	2428.52
194.152	2413.33
194.227	2404.24
194.302	2395.05
194.378	2397.67
194.453	2396.39
194.529	2409.1
194.604	2391.29
194.679	2385.2
194.755	2364.45
194.83	2377.83
194.905	2377.36
194.981	2386.21
195.056	2380.4
195.131	2389.78
195.207	2387.16
195.282	2376.98
195.357	2356.64
195.433	2370.87
195.508	2356.68
195.583	2364.73
195.659	2374.58
195.734	2386.11
195.809	2386.3
195.884	2397.29
195.96	2399.48
196.035	2415.9
196.11	2413.81
196.185	2428.9
196.261	2437.04
196.336	2470.55
196.411	2457.69
196.486	2461.84
196.561	2457.6
196.637	2461.41
196.712	2479.17
196.787	2482.7
196.862	2500.74
196.937	2511.74
197.013	2520.26
197.088	2529.69
197.163	2554.27
197.238	2578.1
197.313	2575.43
197.388	2590.39
197.464	2623.88
197.539	2633.74
197.614	2625.17
197.689	2638.6
197.764	2655.09
197.839	2672.95
197.914	2665.9
197.989	2687.57
198.065	2703.25
198.14	2755.07
198.215	2786.61
198.29	2800
198.365	2817.21
198.44	2827.88
198.515	2857.14
198.59	2875.06
198.665	2903.66
198.74	2909.28
198.815	2907.57
198.89	2935.4
198.965	2966.97
199.04	2959.34
199.115	2976.21
199.19	3021.11
199.265	3020.87
199.34	3032.46
199.415	3070.33
199.49	3097.7
199.565	3110.28
199.64	3135.08
199.715	3132.98
199.79	3144.1
199.865	3151.06
199.94	3147.82
200.015	3180.63
200.09	3187.12
200.165	3195.13
200.24	3206.78
200.315	3253.52
200.39	3269.78
200.464	3277.18
200.539	3279.28
200.614	3298.16
200.689	3327.98
200.764	3338.96
200.839	3364.33
200.914	3369.96
200.989	3356.79
201.063	3372.63
201.138	3354.27
201.213	3352.22
201.288	3331.71
201.363	3332.38
201.438	3334.67
201.512	3354.17
201.587	3336.61
201.662	3341.05
201.737	3351.07
201.812	3357.85
201.886	3320.79
201.961	3332.11
202.036	3318.61
202.111	3315.55
202.186	3287.28
202.26	3269
202.335	3239.8
202.41	3232.16
202.485	3213.95
202.559	3194.34
202.634	3164.48
202.709	3177.92
202.784	3165.67
202.858	3171.48
202.933	3159.18
203.008	3153.6
203.082	3133.52
203.157	3140.68
203.232	3102.72
203.306	3088.03
203.381	3062.79
203.456	3048.01
203.53	3033.45
203.605	3023.82
203.68	3011.32
203.754	3017.09
203.829	3013.56
203.904	3013.22
203.978	3020.33
204.053	3043.75
204.127	3052
204.202	3072.41
204.277	3075.8
204.351	3091.73
204.426	3108.38
204.5	3127.89
204.575	3123.89
204.65	3170.9
204.724	3195.53
204.799	3236.78
204.873	3272.15
204.948	3309.04
205.022	3344.4
205.097	3383.57
205.171	3446.52
205.246	3506.89
205.32	3556.14
205.395	3613.75
205.469	3662.39
205.544	3727.24
205.618	3777.32
205.693	3858.36
205.767	3920.44
205.842	4015.14
205.916	4084.07
205.991	4153.31
206.065	4233.65
206.14	4339.2
206.214	4420.81
206.289	4509.36
206.363	4620.05
206.438	4720.84
206.512	4829.43
206.586	4948.71
206.661	5060.26
206.735	5146.61
206.81	5258.58
206.884	5397.11
206.958	5500.97
207.033	5639.48
207.107	5768.72
207.181	5922.57
207.256	6044.39
207.33	6191.84
207.405	6344.31
207.479	6503.98
207.553	6650.35
207.628	6777.56
207.702	6925.44
207.776	7062.36
207.851	7210.89
207.925	7376.68
207.999	7519.15
208.073	7664.52
208.148	7816.61
208.222	7959.21
208.296	8149.01
208.371	8324.15
208.445	8493.43
208.519	8683.29
208.593	8859.96
208.668	9015.68
208.742	9184.25
208.816	9351.63
208.89	9529.18
208.965	9690.77
209.039	9855.35
209.113	10036.15
209.187	10228.93
209.261	10389.28
209.336	10576.73
209.41	10760
209.484	10924.41
209.558	11117.83
209.632	11301.61
209.707	11487.14
209.781	11675.08
209.855	11858.28
209.929	12037.92
210.003	12202.13
210.077	12362.35
210.151	12575.3
210.226	12777.6
210.3	12966.56
210.374	13150.94
210.448	13317.82
210.522	13481.76
210.596	13663.01
210.67	13828.4
210.744	14036.21
210.818	14226.43
210.892	14410.85
210.966	14562.17
211.041	14737.2
211.115	14884.27
211.189	15054.57
211.263	15218.02
211.337	15378.49
211.411	15544.11
211.485	15690.92
211.559	15855.1
211.633	16014.11
211.707	16130.7
211.781	16281.12
211.855	16380.99
211.929	16512.14
212.003	16637.64
212.077	16791.58
212.151	16927.3
212.225	17073.52
212.299	17194.39
212.373	17319.74
212.447	17440.51
212.52	17601.19
212.594	17727.65
212.668	17872.76
212.742	17994.97
212.816	18114.2
212.89	18223.3
212.964	18340.45
213.038	18467.48
213.112	18594.13
213.186	18713.35
213.26	18799.61
213.333	18861.92
213.407	18999.6
213.481	19119.98
213.555	19241.23
213.629	19338.24
213.703	19442.23
213.777	19563.82
213.85	19643.38
213.924	19791.14
213.998	19897.02
214.072	19988.44
214.146	20074.17
214.219	20165.45
214.293	20257.49
214.367	20364.63
214.441	20474.65
214.515	20555.76
214.588	20620.68
214.662	20676.63
214.736	20748.58
214.81	20852.1
214.883	20954.61
214.957	21014.71
215.031	21081.36
215.105	21134.95
215.178	21201.95
215.252	21273.28
215.326	21318.49
215.4	21372.37
215.473	21392.67
215.547	21446.07
215.621	21505.6
215.694	21583.59
215.768	21627.41
215.842	21682.74
215.915	21736.15
215.989	21784.07
216.063	21844.66
216.136	21904.19
216.21	21974.23
216.284	22063.6
216.357	22120.25
216.431	22173.22
216.504	22240.86
216.578	22327.29
216.652	22396.23
216.725	22453.36
216.799	22510
216.873	22558.5
216.946	22630.43
217.02	22682.69
217.093	22735.62
217.167	22767.01
217.24	22804.47
217.314	22850.95
217.387	22897.86
217.461	22935.18
217.535	23000.51
217.608	23032.14
217.682	23094.49
217.755	23150.13
217.829	23175.16
217.902	23229.65
217.976	23282.6
218.049	23321.89
218.123	23352.81
218.196	23402.86
218.27	23440.91
218.343	23476.79
218.417	23530.41
218.49	23568.41
218.563	23626.19
218.637	23665.39
218.71	23729.44
218.784	23767.73
218.857	23822.47
218.931	23852.9
219.004	23889.89
219.077	23929.05
219.151	23977.38
219.224	23992.19
219.298	24020.84
219.371	24068.98
219.444	24079.83
219.518	24109.3
219.591	24142.87
219.665	24201.19
219.738	24226.56
219.811	24254.3
219.885	24288.06
219.958	24327.28
220.031	24362.45
220.105	24391.05
220.178	24424.29
220.251	24445.66
220.325	24488.79
220.398	24523.28
220.471	24572.1
220.544	24612.87
220.618	24621.21
220.691	24643.94
220.764	24688.95
220.838	24724.12
220.911	24742.89
220.984	24801.12
221.057	24830.16
221.131	24838.55
221.204	24822.49
221.277	24862.1
221.35	24916.91
221.424	24933.17
221.497	24950.06
221.57	24963.66
221.643	24988.13
221.716	25009.12
221.79	25015.73
221.863	25030.35
221.936	25038.74
222.009	25035.7
222.082	25039.47
222.155	25057.46
222.229	25085.16
222.302	25093.22
222.375	25101.66
222.448	25116.05
222.521	25105.53
222.594	25110.83
222.667	25128.68
222.74	25152.86
222.814	25161.54
222.887	25149.09
222.96	25175.3
223.033	25189.53
223.106	25192.52
223.179	25200.44
223.252	25207.97
223.325	25210.67
223.398	25205.89
223.471	25213.03
223.544	25218.82
223.617	25236.39
223.69	25238.27
223.763	25224.61
223.837	25223.31
223.91	25232.58
223.983	25211.39
224.056	25200.63
224.129	25205.6
224.202	25215.83
224.275	25207.19
224.348	25196.05
224.42	25179.3
224.493	25149.39
224.566	25136.11
224.639	25146.25
224.712	25128.68
224.785	25115.41
224.858	25105.76
224.931	25090.85
225.004	25059.2
225.077	25058.09
225.15	25007.57
225.223	24991.12
225.296	25009.65
225.369	24983.45
225.442	24954.5
225.514	24946.73
225.587	24939.44
225.66	24918.65
225.733	24906.39
225.806	24894.52
225.879	24879.57
225.952	24855.93
226.025	24862.63
226.097	24854.14
226.17	24833.73
226.243	24792.29
226.316	24779.36
226.389	24772.55
226.461	24757.79
226.534	24757.36
226.607	24734.44
226.68	24754.56
226.753	24736.18
226.825	24685.27
226.898	24675.05
226.971	24660.09
227.044	24645.71
227.117	24639.15
227.189	24646.29
227.262	24633.02
227.335	24623.66
227.407	24596.46
227.48	24586.95
227.553	24564.42
227.626	24538.85
227.698	24520.76
227.771	24513.67
227.844	24477.88
227.916	24461.09
227.989	24435.67
228.062	24418.11
228.134	24434.27
228.207	24408.17
228.28	24378.84
228.352	24362.49
228.425	24343.44
228.498	24332.44
228.57	24303.88
228.643	24298.38
228.716	24251.4
228.788	24233.5
228.861	24202.53
228.934	24190.48
229.006	24168.24
229.079	24144.65
229.151	24114.99
229.224	24079.15
229.296	24065.21
229.369	24073.99
229.442	24057.3
229.514	24025.18
229.587	24010.18
229.659	23957.85
229.732	23937.73
229.804	23929.87
229.877	23927.8
229.949	23924.86
230.022	23916.13
230.094	23902.43
230.167	23871.99
230.239	23850.1
230.312	23811.27
230.384	23808.43
230.457	23795.21
230.529	23782.72
230.602	23765.99
230.674	23750.36
230.747	23738.11
230.819	23720.56
230.892	23661.96
230.964	23647.78
231.037	23636.45
231.109	23608.87
231.181	23589.92
231.254	23554.47
231.326	23524.57
231.399	23501.33
231.471	23471.04
231.544	23422.91
231.616	23403.19
231.688	23381.39
231.761	23340.07
231.833	23316.83
231.905	23265.09
231.978	23235.28
232.05	23201.15
232.122	23165.51
232.195	23141.16
232.267	23130.65
232.339	23104.46
232.412	23099.21
232.484	23050.7
232.556	23014.59
232.629	23022.16
232.701	23009.14
232.773	22979.54
232.846	22950.32
232.918	22927.37
232.99	22906.59
233.062	22891.35
233.135	22865.36
233.207	22814.16
233.279	22803.12
233.351	22775.64
233.424	22740.54
233.496	22710.5
233.568	22702.45
233.64	22659.02
233.713	22629.61
233.785	22580.67
233.857	22558.16
233.929	22508.93
234.001	22507.87
234.074	22496.83
234.146	22428.95
234.218	22386
234.29	22354.9
234.362	22321.54
234.434	22264.85
234.507	22204.06
234.579	22154.55
234.651	22112.66
234.723	22096.8
234.795	22066.34
234.867	22028.5
234.939	22013.12
235.012	21980.1
235.084	21942.64
235.156	21916.85
235.228	21869.56
235.3	21836.93
235.372	21801.74
235.444	21784.39
235.516	21727.75
235.588	21696.03
235.66	21667.83
235.732	21621.42
235.804	21651.21
235.876	21623.93
235.948	21597.9
236.02	21563.53
236.092	21525.84
236.164	21489.21
236.236	21444
236.308	21404.33
236.38	21372.96
236.452	21330.11
236.524	21278.01
236.596	21262
236.668	21241.28
236.74	21204.65
236.812	21177.66
236.884	21144.21
236.956	21108.21
237.028	21063.96
237.1	21011.53
237.172	20988.63
237.244	20972.92
237.316	20886.45
237.388	20832.76
237.46	20788.76
237.532	20768.57
237.604	20731.22
237.675	20711.55
237.747	20688.52
237.819	20645.77
237.891	20608.85
237.963	20565.14
238.035	20532.61
238.107	20458.87
238.178	20438.87
238.25	20397.77
238.322	20387.89
238.394	20327.31
238.466	20279.98
238.538	20242.44
238.609	20206.88
238.681	20142.3
238.753	20089.14
238.825	20061.14
238.897	20033.68
238.968	20018.98
239.04	19980.95
239.112	19962.01
239.184	19904.23
239.255	19860.04
239.327	19831.32
239.399	19798.55
239.471	19770.6
239.542	19740.29
239.614	19715.52
239.686	19636.68
239.758	19610.66
239.829	19554.13
239.901	19533.21
239.973	19498.52
240.044	19480.25
240.116	19449.99
240.188	19417.27
240.259	19377.94
240.331	19322
240.403	19300.94
240.474	19237.47
240.546	19183.74
240.618	19130.78
240.689	19099.12
240.761	19057.82
240.833	19034.45
240.904	18996.81
240.976	18954.65
241.048	18922.31
241.119	18892.62
241.191	18859.33
241.262	18850.46
241.334	18807.62
241.405	18765.84
241.477	18724.39
241.549	18676.11
241.62	18646.66
241.692	18616.5
241.763	18600.35
241.835	18562.38
241.906	18518.29
241.978	18474.24
242.049	18454.92
242.121	18429.86
242.192	18402.68
242.264	18347.07
242.335	18291.65
242.407	18252.42
242.478	18213.1
242.55	18175.36
242.621	18115.08
242.693	18081.15
242.764	18019.56
242.836	17975.95
242.907	17946.55
242.979	17922.84
243.05	17882.36
243.122	17839.91
243.193	17799.33
243.264	17737.26
243.336	17712.2
243.407	17681.89
243.479	17661.11
243.55	17622.85
243.622	17594.47
243.693	17560.92
243.764	17552.3
243.836	17508.68
243.907	17468.39
243.978	17430.85
244.05	17401.65
244.121	17357.93
244.192	17331.19
244.264	17282.99
244.335	17242.7
244.407	17189.98
244.478	17151.52
244.549	17112.05
244.62	17069.3
244.692	17031.85
244.763	17002.31
244.834	16958.07
244.906	16910.21
244.977	16887.95
245.048	16872.96
245.119	16817.92
245.191	16760.23
245.262	16694.59
245.333	16683.84
245.405	16654.1
245.476	16620.56
245.547	16586
245.618	16566.82
245.689	16527.35
245.761	16494.91
245.832	16460.59
245.903	16435.97
245.974	16397.6
246.045	16372.2
246.117	16357.02
246.188	16313.79
246.259	16267.61
246.33	16232.23
246.401	16201.68
246.473	16142.15
246.544	16097.62
246.615	16077.91
246.686	16049.32
246.757	16035.44
246.828	15980.74
246.899	15965.75
246.97	15914.99
247.042	15870.55
247.113	15843.9
247.184	15835.85
247.255	15795.26
247.326	15773.82
247.397	15734.29
247.468	15709.18
247.539	15678.86
247.61	15627
247.681	15611.62
247.752	15605.55
247.823	15560.38
247.894	15535.71
247.965	15494.69
248.037	15451.02
248.108	15400.21
248.179	15369.65
248.25	15334.75
248.321	15315.42
248.392	15266.5
248.463	15265.82
248.534	15233.1
248.605	15210.34
248.675	15176.31
248.746	15161.28
248.817	15131.44
248.888	15113.17
248.959	15062.51
249.03	15038.07
249.101	15012.43
249.172	14969.19
249.243	14913.22
249.314	14902.09
249.385	14869.45
249.456	14858.27
249.527	14831.56
249.598	14808.91
249.669	14779.65
249.739	14756.7
249.81	14726.43
249.881	14689.12
249.952	14654.61
250.023	14629.35
250.094	14581.38
250.165	14539.16
250.235	14504.59
250.306	14483.67
250.377	14446.03
250.448	14432.14
250.519	14379.89
250.59	14370.44
250.66	14334.43
250.731	14322.76
250.802	14293.36
250.873	14269.3
250.944	14242.6
251.014	14205
251.085	14208.42
251.156	14191.21
251.227	14179.02
251.297	14170.53
251.368	14157.66
251.439	14143.63
251.51	14132.45
251.58	14096.29
251.651	14057.15
251.722	14045.68
251.792	13997.33
251.863	13968.88
251.934	13955.63
252.005	13959.24
252.075	13929.89
252.146	13921.35
252.217	13914.03
252.287	13900.48
252.358	13873.48
252.429	13873
252.499	13853.33
252.57	13824.56
252.641	13810.96
252.711	13784.5
252.782	13737.64
252.852	13733.64
252.923	13707.17
252.994	13682.39
253.064	13676.18
253.135	13657.28
253.205	13632.74
253.276	13627.58
253.347	13626.81
253.417	13592.49
253.488	13563.28
253.558	13535.56
253.629	13510.59
253.699	13487.16
253.77	13473.42
253.841	13447.29
253.911	13426.47
253.982	13402.27
254.052	13389.2
254.123	13366.21
254.193	13337.09
254.264	13358.2
254.334	13322.72
254.405	13290.43
254.475	13253.93
254.546	13223.47
254.616	13218.94
254.687	13195.85
254.757	13179.55
254.827	13148.7
254.898	13132.74
254.968	13106.37
255.039	13077.31
255.109	13071.91
255.18	13034.69
255.25	12989.33
255.321	12974.72
255.391	12920.44
255.461	12921.5
255.532	12871.23
255.602	12839.51
255.673	12803.11
255.743	12766.19
255.813	12721.31
255.884	12715.96
255.954	12704.15
256.024	12710.75
256.095	12690.84
256.165	12661
256.235	12645
256.306	12618.15
256.376	12614.68
256.446	12607.98
256.517	12588.94
256.587	12573.27
256.657	12566.81
256.728	12556.25
256.798	12540.68
256.868	12527.38
256.938	12496.24
257.009	12494.55
257.079	12486.21
257.149	12502.65
257.219	12464.71
257.29	12448.32
257.36	12401.33
257.43	12392.65
257.5	12345.7
257.571	12313.35
257.641	12305.98
257.711	12272.62
257.781	12256.28
257.852	12238.06
257.922	12198.77
257.992	12183.49
258.062	12161.22
258.132	12143.92
258.202	12112.93
258.273	12092.01
258.343	12097.07
258.413	12070.22
258.483	12046.46
258.553	12017.1
258.623	11979.21
258.693	11963.55
258.764	11964.03
258.834	11966.73
258.904	11946.34
258.974	11926.29
259.044	11900.6
259.114	11882.14
259.184	11869.22
259.254	11853.27
259.324	11809.11
259.394	11794.99
259.464	11796.29
259.535	11774.02
259.605	11748.43
259.675	11726.93
259.745	11714.98
259.815	11680.95
259.885	11656.52
259.955	11664.61
260.025	11635.07
260.095	11621.43
260.165	11606.54
260.235	11605.57
260.305	11572.99
260.375	11542
260.445	11543.3
260.515	11549.57
260.585	11542.24
260.655	11520.36
260.725	11516.7
260.795	11509.32
260.865	11513.85
260.934	11479.97
261.004	11466.62
261.074	11452.26
261.144	11456.35
261.214	11446.28
261.284	11424.55
261.354	11417.27
261.424	11390.32
261.494	11394.32
261.564	11370.42
261.634	11365.07
261.703	11326.18
261.773	11322.13
261.843	11315.62
261.913	11300.97
