Data from 20250703_urea_0.1M_MAYP1162681_21-31-04-761.txt Node
Date: Thu Jul 03 21:31:04 BST 2025
User: adleo
Spectrometer: MAYP116268
Trigger mode: 0
Integration Time (sec): 1.000000E0
Scans to average: 1
Electric dark correction enabled: true
Nonlinearity correction enabled: true
Boxcar width: 10
XAxis mode: Wavelengths
Number of Pixels in Spectrum: 2068
>>>>>Begin Spectral Data<<<<<
179.565	1398.67
179.642	1467.47
179.718	1519.99
179.795	1564.16
179.871	1604.9
179.948	1622.2
180.024	1645.69
180.101	1670.78
180.177	1690.35
180.254	1717.64
180.33	1742.53
180.407	1809.07
180.483	1916.74
180.56	2021.71
180.636	2119.72
180.712	2101.54
180.789	2112.34
180.865	2127.17
180.942	2137.26
181.018	2148.48
181.095	2163.33
181.171	2170.42
181.248	2168.71
181.324	2188.46
181.4	2199.07
181.477	2208.92
181.553	2226.43
181.63	2250.32
181.706	2269.49
181.782	2274.92
181.859	2273.39
181.935	2280.15
182.011	2276.92
182.088	2296.14
182.164	2315.62
182.24	2328.32
182.317	2341.31
182.393	2341.5
182.469	2358.68
182.546	2374.1
182.622	2379.15
182.698	2371.34
182.775	2381.43
182.851	2398.43
182.927	2385.52
183.003	2380.24
183.08	2373.05
183.156	2381.81
183.232	2375.62
183.308	2362.15
183.385	2373.34
183.461	2392.62
183.537	2391.05
183.613	2408.04
183.69	2399.04
183.766	2388.09
183.842	2396.8
183.918	2402.66
183.995	2415.61
184.071	2416.65
184.147	2408.99
184.223	2394.81
184.299	2408.62
184.375	2397.67
184.452	2404.1
184.528	2459.01
184.604	2470.29
184.68	2485.23
184.756	2494.62
184.832	2504.85
184.908	2511.56
184.985	2508.85
185.061	2489.05
185.137	2502.86
185.213	2488.05
185.289	2490.19
185.365	2483.62
185.441	2483
185.517	2493.15
185.593	2489.29
185.669	2487.39
185.745	2502.86
185.822	2524.28
185.898	2518.47
185.974	2529.46
186.05	2520.84
186.126	2484.27
186.202	2475.79
186.278	2469.18
186.354	2456.51
186.43	2462.18
186.506	2459.56
186.582	2460.37
186.658	2469.03
186.734	2444.75
186.81	2448.75
186.886	2449.51
186.962	2463.51
187.038	2460.42
187.114	2453.08
187.19	2459.99
187.266	2448.99
187.341	2446.37
187.417	2435.85
187.493	2435.71
187.569	2438.23
187.645	2431.8
187.721	2418.09
187.797	2426.7
187.873	2433.37
187.949	2428.71
188.025	2420.61
188.101	2424.22
188.176	2431.94
188.252	2427.42
188.328	2437.22
188.404	2435.36
188.48	2434.03
188.556	2426.12
188.632	2424.08
188.707	2425.08
188.783	2424.7
188.859	2419.61
188.935	2408.04
189.011	2419.89
189.086	2411.23
189.162	2401.56
189.238	2400.13
189.314	2397.23
189.39	2388.71
189.465	2378.52
189.541	2399.33
189.617	2381.76
189.693	2378.57
189.768	2380.29
189.844	2407.82
189.92	2400.68
189.996	2410.77
190.071	2421.34
190.147	2420.39
190.223	2429.77
190.298	2421.82
190.374	2402.63
190.45	2415.53
190.526	2427.91
190.601	2421.48
190.677	2422.86
190.753	2454.21
190.828	2456.49
190.904	2474.54
190.98	2492.92
191.055	2508.16
191.131	2495.54
191.207	2518.15
191.282	2525.25
191.358	2514.01
191.433	2497.62
191.509	2510.8
191.585	2507
191.66	2504.85
191.736	2513.14
191.811	2506.09
191.887	2528.14
191.963	2557.43
192.038	2564.43
192.114	2562.09
192.189	2565.38
192.265	2564.43
192.34	2537.46
192.416	2535.7
192.491	2531.94
192.567	2536.08
192.642	2536.99
192.718	2536.99
192.793	2525.18
192.869	2520.23
192.944	2522.8
193.02	2534.08
193.095	2540.04
193.171	2547.23
193.246	2547.89
193.322	2542.42
193.397	2542.7
193.473	2526.36
193.548	2507.07
193.624	2513.98
193.699	2512.27
193.775	2531.8
193.85	2530.61
193.925	2542.61
194.001	2544.66
194.076	2535.47
194.152	2520.18
194.227	2510.6
194.302	2502.32
194.378	2508.08
194.453	2505.89
194.529	2518.47
194.604	2502.03
194.679	2493.56
194.755	2471.19
194.83	2488.86
194.905	2488.05
194.981	2497.48
195.056	2490.06
195.131	2496.29
195.207	2494.34
195.282	2486.01
195.357	2462.43
195.433	2480.71
195.508	2467.61
195.583	2474.28
195.659	2490.33
195.734	2502.67
195.809	2503.43
195.884	2509.66
195.96	2506.9
196.035	2524
196.11	2523.42
196.185	2533.66
196.261	2537.33
196.336	2574.28
196.411	2555.89
196.486	2560.03
196.561	2554.98
196.637	2560.22
196.712	2576.7
196.787	2577.32
196.862	2594.18
196.937	2608.47
197.013	2613.52
197.088	2625.66
197.163	2650.44
197.238	2668.23
197.313	2663.6
197.388	2679.42
197.464	2717.35
197.539	2728.74
197.614	2724.64
197.689	2738.08
197.764	2760.81
197.839	2782.82
197.914	2775.39
197.989	2800.41
198.065	2817.41
198.14	2873.26
198.215	2904.24
198.29	2917.87
198.365	2933.79
198.44	2944.99
198.515	2973.55
198.59	2992.53
198.665	3020.89
198.74	3031.77
198.815	3033.58
198.89	3060.61
198.965	3096.58
199.04	3091.66
199.115	3112.26
199.19	3157.42
199.265	3162.61
199.34	3168.29
199.415	3208.23
199.49	3231.07
199.565	3244.95
199.64	3271.71
199.715	3267.13
199.79	3274.42
199.865	3278.57
199.94	3276.29
200.015	3310.35
200.09	3317.18
200.165	3322.33
200.24	3331.97
200.315	3373.09
200.39	3390.89
200.464	3400.1
200.539	3395.66
200.614	3414.8
200.689	3443.58
200.764	3450.6
200.839	3468.1
200.914	3477.5
200.989	3465.71
201.063	3483.03
201.138	3463.53
201.213	3466.77
201.288	3444.44
201.363	3450.12
201.438	3456.94
201.512	3474.78
201.587	3454.25
201.662	3457.26
201.737	3471.87
201.812	3479.51
201.886	3447.31
201.961	3459.1
202.036	3445.08
202.111	3447.42
202.186	3417.37
202.26	3395.69
202.335	3374.59
202.41	3367.34
202.485	3346.5
202.559	3324.74
202.634	3297.82
202.709	3309.08
202.784	3289.56
202.858	3293.57
202.933	3276.59
203.008	3272.05
203.082	3254.5
203.157	3262.56
203.232	3223.03
203.306	3208.61
203.381	3183.04
203.456	3161.04
203.53	3142.85
203.605	3130.98
203.68	3113.75
203.754	3115.71
203.829	3110.46
203.904	3098.77
203.978	3101.3
204.053	3123.2
204.127	3126.77
204.202	3143.85
204.277	3142.42
204.351	3158.79
204.426	3175.11
204.5	3192.95
204.575	3182.03
204.65	3224.32
204.724	3243.61
204.799	3279.75
204.873	3303.38
204.948	3334.26
205.022	3359.41
205.097	3389.12
205.171	3446.06
205.246	3499.12
205.32	3544.79
205.395	3594.99
205.469	3636.85
205.544	3695
205.618	3732.12
205.693	3800.2
205.767	3843.58
205.842	3930.96
205.916	3983.58
205.991	4037.17
206.065	4113.95
206.14	4202.61
206.214	4270.84
206.289	4343.19
206.363	4437.04
206.438	4527.31
206.512	4619.69
206.586	4727.51
206.661	4824.21
206.735	4892.37
206.81	4987.72
206.884	5100.56
206.958	5186.21
207.033	5308.6
207.107	5421.61
207.181	5562.77
207.256	5663.93
207.33	5795.07
207.405	5923.36
207.479	6065.55
207.553	6187.92
207.628	6287.29
207.702	6415.71
207.776	6527.04
207.851	6649
207.925	6791.33
207.999	6913.44
208.073	7036.85
208.148	7170.2
208.222	7287.18
208.296	7454.68
208.371	7606.59
208.445	7753.92
208.519	7921.3
208.593	8071.45
208.668	8205.77
208.742	8346.68
208.816	8487.57
208.89	8646.24
208.965	8782.67
209.039	8926.41
209.113	9091.75
209.187	9255.15
209.261	9395.48
209.336	9566.46
209.41	9731.1
209.484	9867.11
209.558	10032.46
209.632	10187.41
209.707	10341.41
209.781	10510.35
209.855	10669.97
209.929	10832.32
210.003	10978.51
210.077	11119.12
210.151	11303.17
210.226	11477.15
210.3	11644.54
210.374	11810.7
210.448	11951.54
210.522	12100.71
210.596	12242.66
210.67	12384.18
210.744	12575.49
210.818	12744.05
210.892	12896.13
210.966	13018.37
211.041	13177.49
211.115	13314.59
211.189	13481.09
211.263	13633.37
211.337	13768.63
211.411	13907.7
211.485	14024.55
211.559	14164.78
211.633	14290.12
211.707	14383.39
211.781	14524.29
211.855	14609.28
211.929	14721.16
212.003	14822.87
212.077	14951.38
212.151	15096.09
212.225	15230.91
212.299	15337.38
212.373	15443.96
212.447	15561.95
212.52	15716.82
212.594	15835.25
212.668	15949.77
212.742	16039.52
212.816	16145.94
212.89	16248.46
212.964	16355.55
213.038	16466.26
213.112	16593.69
213.186	16716.54
213.26	16808.98
213.333	16859.35
213.407	16970.83
213.481	17081.63
213.555	17197.88
213.629	17290.46
213.703	17371.42
213.777	17466.36
213.85	17532.91
213.924	17670.65
213.998	17763.32
214.072	17853.39
214.146	17931.94
214.219	18028.71
214.293	18121.33
214.367	18211.4
214.441	18316.99
214.515	18397.08
214.588	18462.09
214.662	18508.74
214.736	18576.98
214.81	18665.41
214.883	18755.52
214.957	18819.66
215.031	18886.46
215.105	18931.18
215.178	18989.49
215.252	19052.66
215.326	19100.61
215.4	19159.98
215.473	19175.84
215.547	19221.91
215.621	19277.66
215.694	19355.06
215.768	19392.02
215.842	19444.79
215.915	19489.27
215.989	19517.17
216.063	19562.85
216.136	19628.05
216.21	19687.42
216.284	19757.49
216.357	19814.02
216.431	19871.42
216.504	19953.25
216.578	20040.19
216.652	20121.29
216.725	20172.47
216.799	20235.12
216.873	20289.87
216.946	20354.06
217.02	20399.45
217.093	20452.61
217.167	20473.57
217.24	20496.13
217.314	20546.15
217.387	20583.4
217.461	20630.06
217.535	20696.27
217.608	20726.73
217.682	20773.92
217.755	20829.58
217.829	20865.1
217.902	20915.32
217.976	20956.05
218.049	20979.85
218.123	20998.7
218.196	21044.54
218.27	21093.74
218.343	21120.78
218.417	21168.79
218.49	21211.44
218.563	21279.69
218.637	21319.36
218.71	21384.86
218.784	21436.58
218.857	21489.74
218.931	21539.96
219.004	21584.55
219.077	21627.64
219.151	21686.97
219.224	21732.38
219.298	21780.68
219.371	21835.3
219.444	21870
219.518	21917.77
219.591	21962.31
219.665	22026.57
219.738	22069.76
219.811	22093.96
219.885	22155.37
219.958	22197.02
220.031	22226.62
220.105	22258.1
220.178	22309.92
220.251	22340.05
220.325	22389.95
220.398	22431.6
220.471	22479.04
220.544	22519.2
220.618	22546.39
220.691	22589.39
220.764	22611.81
220.838	22647.15
220.911	22659.68
220.984	22706.88
221.057	22745.16
221.131	22778.62
221.204	22783.25
221.277	22828.28
221.35	22891.93
221.424	22906.3
221.497	22941.01
221.57	22966.76
221.643	23002.82
221.716	23026.54
221.79	23048.58
221.863	23071.82
221.936	23093.47
222.009	23112.47
222.082	23143.52
222.155	23169.27
222.229	23207.89
222.302	23243.05
222.375	23252.74
222.448	23287.41
222.521	23305.83
222.594	23316.05
222.667	23321.06
222.74	23351.93
222.814	23366.78
222.887	23373.63
222.96	23399.04
223.033	23416.64
223.106	23447.84
223.179	23469.3
223.252	23483.33
223.325	23505.18
223.398	23525.24
223.471	23538.26
223.544	23553.88
223.617	23557.11
223.69	23570.28
223.763	23565.26
223.837	23571.24
223.91	23586.58
223.983	23575.2
224.056	23565.99
224.129	23576.21
224.202	23596.8
224.275	23588.17
224.348	23580.4
224.42	23567.87
224.493	23566.71
224.566	23571.19
224.639	23580.89
224.712	23567.53
224.785	23570.13
224.858	23564.73
224.931	23548.29
225.004	23534.49
225.077	23536.42
225.15	23518.97
225.223	23516.56
225.296	23544.05
225.369	23541.11
225.442	23530.69
225.514	23537.97
225.587	23543.37
225.66	23548.53
225.733	23552.63
225.806	23560.44
225.879	23551.81
225.952	23533.83
226.025	23524.18
226.097	23531.37
226.17	23519.65
226.243	23500.89
226.316	23487.48
226.389	23487.19
226.461	23496.4
226.534	23506.53
226.607	23492.45
226.68	23509.71
226.753	23509.96
226.825	23477.01
226.898	23474.51
226.971	23470.17
227.044	23469.39
227.117	23463.32
227.189	23453.72
227.262	23454.2
227.335	23449.77
227.407	23433.13
227.48	23450.64
227.553	23454.16
227.626	23430.09
227.698	23415.09
227.771	23414.13
227.844	23392.58
227.916	23380.33
227.989	23349.56
228.062	23327.86
228.134	23340.3
228.207	23330.51
228.28	23311.32
228.352	23301.82
228.425	23279.11
228.498	23274.63
228.57	23249.65
228.643	23255.92
228.716	23245.26
228.788	23214.06
228.861	23197.33
228.934	23195.69
229.006	23168.59
229.079	23155.77
229.151	23148.63
229.224	23115.79
229.296	23106.73
229.369	23135.61
229.442	23139.38
229.514	23121.83
229.587	23128.19
229.659	23096.37
229.732	23080.16
229.804	23079.25
229.877	23086.48
229.949	23096.65
230.022	23094.77
230.094	23080.84
230.167	23058.71
230.239	23027.27
230.312	23018.06
230.384	23024.48
230.457	23021.82
230.529	23015.32
230.602	22998.82
230.674	22987.3
230.747	23002.87
230.819	22997.23
230.892	22945.69
230.964	22933.83
231.037	22915.6
231.109	22884.84
231.181	22872.26
231.254	22841.16
231.326	22809.05
231.399	22778.34
231.471	22739.96
231.544	22697.96
231.616	22688.61
231.688	22678.58
231.761	22663.44
231.833	22644.01
231.905	22606.07
231.978	22579.17
232.05	22560.66
232.122	22540.21
232.195	22497.74
232.267	22487.95
232.339	22463.56
232.412	22454.01
232.484	22415.15
232.556	22395.15
232.629	22401.46
232.701	22392.16
232.773	22383.29
232.846	22353.35
232.918	22332.62
232.99	22314.4
233.062	22299.6
233.135	22276.66
233.207	22228.5
233.279	22208.68
233.351	22193.84
233.424	22161.54
233.496	22126.06
233.568	22119.17
233.64	22081.33
233.713	22065.71
233.785	22032.06
233.857	21998.61
233.929	21956.38
234.001	21952.76
234.074	21949.73
234.146	21890.82
234.218	21860.89
234.29	21826.28
234.362	21790.9
234.434	21745.59
234.507	21708.28
234.579	21665.67
234.651	21638.63
234.723	21616.84
234.795	21596.98
234.867	21555.97
234.939	21544.01
235.012	21515.62
235.084	21490.17
235.156	21466.6
235.228	21418.6
235.3	21377.39
235.372	21351.84
235.444	21337.24
235.516	21281.81
235.588	21244.16
235.66	21227.05
235.732	21179.67
235.804	21203.1
235.876	21188.74
235.948	21170.66
236.02	21133.51
236.092	21100.44
236.164	21065.12
236.236	21032.63
236.308	20996.34
236.38	20963.62
236.452	20912.67
236.524	20892
236.596	20864.38
236.668	20842.5
236.74	20825.63
236.812	20803.65
236.884	20774.69
236.956	20747.17
237.028	20705.24
237.1	20672.42
237.172	20660.23
237.244	20646.16
237.316	20569.76
237.388	20526.34
237.46	20483.5
237.532	20474.82
237.604	20433.09
237.675	20417.14
237.747	20391.84
237.819	20347.16
237.891	20318.34
237.963	20283.69
238.035	20239.7
238.107	20164.66
238.178	20139.99
238.25	20099.07
238.322	20084.04
238.394	20038.54
238.466	20000.09
238.538	19967.08
238.609	19921.82
238.681	19861.25
238.753	19808.77
238.825	19780.62
238.897	19754.21
238.968	19734.55
239.04	19679.62
239.112	19678.51
239.184	19626.89
239.255	19585.64
239.327	19554.46
239.399	19521.7
239.471	19493.31
239.542	19477.31
239.614	19469.55
239.686	19411.97
239.758	19392.26
239.829	19346.38
239.901	19321.22
239.973	19283.83
240.044	19263.73
240.116	19238.82
240.188	19197.04
240.259	19167.64
240.331	19119.07
240.403	19095.46
240.474	19047.46
240.546	19005.92
240.618	18948.52
240.689	18918.07
240.761	18888.67
240.833	18872.48
240.904	18825.5
240.976	18780.54
241.048	18740.2
241.119	18709.07
241.191	18678.04
241.262	18658.57
241.334	18618.47
241.405	18582.04
241.477	18533.27
241.549	18487.93
241.62	18452.75
241.692	18425.91
241.763	18408.41
241.835	18369.28
241.906	18329.52
241.978	18280.13
242.049	18257.09
242.121	18239.41
242.192	18213.63
242.264	18151.03
242.335	18095.08
242.407	18072.43
242.478	18053.44
242.55	18020.91
242.621	17972.14
242.693	17936.38
242.764	17889.74
242.836	17843.91
242.907	17807.67
242.979	17773.35
243.05	17740.2
243.122	17707.38
243.193	17668.68
243.264	17599.23
243.336	17571.86
243.407	17541.93
243.479	17531.86
243.55	17511.38
243.622	17475.38
243.693	17444.92
243.764	17432.49
243.836	17385.21
243.907	17342.03
243.978	17297.89
244.05	17265.5
244.121	17208.39
244.192	17183.57
244.264	17127.86
244.335	17098.8
244.407	17051.76
244.478	17025.93
244.549	16986.36
244.62	16930.74
244.692	16890.88
244.763	16875.03
244.834	16828.52
244.906	16791.02
244.977	16750.11
245.048	16727.84
245.119	16680.32
245.191	16624.51
245.262	16571.98
245.333	16562.14
245.405	16534.48
245.476	16500.21
245.547	16465.27
245.618	16453.65
245.689	16413.94
245.761	16395.24
245.832	16359.24
245.903	16336.39
245.974	16312.58
246.045	16285.35
246.117	16271.66
246.188	16225.73
246.259	16176.33
246.33	16145.72
246.401	16107.5
246.473	16062.34
246.544	16020.21
246.615	16001.13
246.686	15966.52
246.757	15946.08
246.828	15888.68
246.899	15872.58
246.97	15822.35
247.042	15781.19
247.113	15755.45
247.184	15742.73
247.255	15706.14
247.326	15672.21
247.397	15636.98
247.468	15608.35
247.539	15576.24
247.61	15532.24
247.681	15515.46
247.752	15501.29
247.823	15463.55
247.894	15436.17
247.965	15388.69
248.037	15344.68
248.108	15296.92
248.179	15271.51
248.25	15244.04
248.321	15236.37
248.392	15187.4
248.463	15187.74
248.534	15156.36
248.605	15142.38
248.675	15107.43
248.746	15071.52
248.817	15046.65
248.888	15021.68
248.959	14970.49
249.03	14948.65
249.101	14923.3
249.172	14887.72
249.243	14830.79
249.314	14822.45
249.385	14789.77
249.456	14774.39
249.527	14742
249.598	14721.47
249.669	14693.84
249.739	14673.45
249.81	14642.46
249.881	14606.98
249.952	14571.84
250.023	14543.35
250.094	14492.06
250.165	14452.29
250.235	14429.73
250.306	14403.65
250.377	14361.18
250.448	14337.52
250.519	14279.52
250.59	14270.99
250.66	14249.01
250.731	14249.25
250.802	14210.78
250.873	14189.14
250.944	14173.09
251.014	14146.38
251.085	14148.98
251.156	14127.87
251.227	14115.96
251.297	14105.45
251.368	14097.45
251.439	14085.54
251.51	14073.4
251.58	14036.86
251.651	14005.04
251.722	13994.39
251.792	13953.8
251.863	13932.06
251.934	13929.64
252.005	13945.26
252.075	13915.86
252.146	13904.1
252.217	13884.52
252.287	13880.23
252.358	13857.58
252.429	13854.64
252.499	13826.68
252.57	13798.86
252.641	13786.28
252.711	13752.92
252.782	13705.92
252.852	13699.17
252.923	13674.58
252.994	13650.24
253.064	13639.59
253.135	13615.24
253.205	13578.61
253.276	13580.1
253.347	13577.88
253.417	13542.69
253.488	13506.3
253.558	13477.52
253.629	13444.83
253.699	13430.32
253.77	13414.75
253.841	13382.16
253.911	13350.15
253.982	13327.16
254.052	13311.49
254.123	13288.02
254.193	13265.46
254.264	13295.15
254.334	13257.02
254.405	13218.89
254.475	13187.84
254.546	13162.29
254.616	13156.27
254.687	13141.66
254.757	13116.31
254.827	13089.84
254.898	13076.1
254.968	13063.66
255.039	13036.72
255.109	13021.77
255.18	12987.93
255.25	12935.29
255.321	12927.82
255.391	12902.17
255.461	12903.19
255.532	12852.76
255.602	12823.26
255.673	12782.38
255.743	12746.08
255.813	12699.33
255.884	12695.18
255.954	12683.75
256.024	12688.09
256.095	12666.35
256.165	12633.96
256.235	12624.75
256.306	12602.38
256.376	12594.29
256.446	12584.69
256.517	12570.76
256.587	12568.06
256.657	12550.42
256.728	12539.19
256.798	12521.06
256.868	12492.57
256.938	12462.74
257.009	12459.7
257.079	12449.29
257.149	12460.23
257.219	12416.89
257.29	12406.29
257.36	12367.05
257.43	12357.31
257.5	12314.03
257.571	12282.02
257.641	12275.71
257.711	12239.75
257.781	12227.6
257.852	12208.7
257.922	12162.53
257.992	12142.57
258.062	12123.63
258.132	12116.11
258.202	12095.04
258.273	12077.88
258.343	12078.27
258.413	12055.95
258.483	12033.63
258.553	12000.57
258.623	11971.5
258.693	11956.51
258.764	11961.57
258.834	11958.53
258.904	11941.18
258.974	11907.2
259.044	11895.35
259.114	11877.61
259.184	11858.47
259.254	11836.3
259.324	11796.49
259.394	11791.23
259.464	11799.33
259.535	11772.15
259.605	11740.58
259.675	11714.79
259.745	11695.7
259.815	11665
259.885	11635.79
259.955	11646.2
260.025	11618.16
260.095	11602.97
260.165	11593.04
260.235	11584.46
260.305	11559.55
260.375	11522.63
260.445	11538.87
260.515	11534.96
260.585	11531.93
260.655	11514.87
260.725	11505.52
260.795	11496.79
260.865	11508.31
260.934	11478.48
261.004	11473.99
261.074	11468.31
261.144	11465.95
261.214	11465.66
261.284	11448.74
261.354	11453.9
261.424	11423.48
261.494	11436.83
261.564	11418.37
261.634	11412.83
261.703	11372.73
261.773	11365.12
