Data from 20250703_urea_0.1M_MAYP1162681_14-31-04-774.txt Node
Date: Thu Jul 03 14:31:04 BST 2025
User: adleo
Spectrometer: MAYP116268
Trigger mode: 0
Integration Time (sec): 1.000000E0
Scans to average: 1
Electric dark correction enabled: true
Nonlinearity correction enabled: true
Boxcar width: 10
XAxis mode: Wavelengths
Number of Pixels in Spectrum: 2068
>>>>>Begin Spectral Data<<<<<
179.565	1251.85
179.642	1309.52
179.718	1356.09
179.795	1398.8
179.871	1432.01
179.948	1449.9
180.024	1475.68
180.101	1498.08
180.177	1516.87
180.254	1540.62
180.33	1566.06
180.407	1625.27
180.483	1725.95
180.56	1822.16
180.636	1909.76
180.712	1897.2
180.789	1909.09
180.865	1922.02
180.942	1929.81
181.018	1939.65
181.095	1952.35
181.171	1958.15
181.248	1959.1
181.324	1973.89
181.4	1978.46
181.477	1990.35
181.553	2006.94
181.63	2027.87
181.706	2046.37
181.782	2053.07
181.859	2052.36
181.935	2054.88
182.011	2049.27
182.088	2066.54
182.164	2085.67
182.24	2099.22
182.317	2108.3
182.393	2106.35
182.469	2120.48
182.546	2133.22
182.622	2139.03
182.698	2135.08
182.775	2145.59
182.851	2160.53
182.927	2153.44
183.003	2152.3
183.08	2147.16
183.156	2154.68
183.232	2148.01
183.308	2133.22
183.385	2139.02
183.461	2157.62
183.537	2157.05
183.613	2171.28
183.69	2160
183.766	2147.96
183.842	2158
183.918	2165.61
183.995	2180.65
184.071	2185.55
184.147	2180.5
184.223	2170.47
184.299	2183.17
184.375	2173.47
184.452	2180.8
184.528	2232.72
184.604	2240.76
184.68	2250.13
184.756	2256.22
184.832	2261.88
184.908	2269.45
184.985	2271.82
185.061	2255.98
185.137	2268.21
185.213	2256.84
185.289	2257.36
185.365	2247.18
185.441	2240.76
185.517	2251.85
185.593	2248.09
185.669	2242.52
185.745	2254.66
185.822	2269.69
185.898	2259.12
185.974	2270.97
186.05	2262.54
186.126	2227.9
186.202	2222.66
186.278	2217.76
186.354	2208.82
186.43	2215.1
186.506	2216.1
186.582	2213.25
186.658	2220.29
186.734	2199.07
186.81	2204.4
186.886	2207.68
186.962	2223.62
187.038	2222.57
187.114	2216.57
187.19	2224.47
187.266	2217.57
187.341	2216
187.417	2209.96
187.493	2212.86
187.569	2213.29
187.645	2207.77
187.721	2195.92
187.797	2201.01
187.873	2209.05
187.949	2202.25
188.025	2194.73
188.101	2195.06
188.176	2201.72
188.252	2194.78
188.328	2201.58
188.404	2197.87
188.48	2191.78
188.556	2183.17
188.632	2182.26
188.707	2179.07
188.783	2173.17
188.859	2165.75
188.935	2156.48
189.011	2163.85
189.086	2158.47
189.162	2148.29
189.238	2145.53
189.314	2142.59
189.39	2138.45
189.465	2132.21
189.541	2151.2
189.617	2135.5
189.693	2129.7
189.768	2131.7
189.844	2160.44
189.92	2153.84
189.996	2163.92
190.071	2174.82
190.147	2173.86
190.223	2184.19
190.298	2178.62
190.374	2167.11
190.45	2181.57
190.526	2191.75
190.601	2184.57
190.677	2185.04
190.753	2215.7
190.828	2219.84
190.904	2233.83
190.98	2251.63
191.055	2259.91
191.131	2248.82
191.207	2271.7
191.282	2281.69
191.358	2275.94
191.433	2257.84
191.509	2271.59
191.585	2265.55
191.66	2269.92
191.736	2277.63
191.811	2268.78
191.887	2285.49
191.963	2310.62
192.038	2314.8
192.114	2310.85
192.189	2316.51
192.265	2311.23
192.34	2291
192.416	2289.62
192.491	2287.05
192.567	2289.43
192.642	2291.38
192.718	2292.67
192.793	2278.91
192.869	2274.3
192.944	2274.49
193.02	2284.63
193.095	2288.81
193.171	2298.81
193.246	2297.57
193.322	2295.48
193.397	2296.29
193.473	2280.2
193.548	2261.16
193.624	2268.49
193.699	2268.3
193.775	2286.58
193.85	2290.1
193.925	2299.48
194.001	2298.48
194.076	2290.39
194.152	2276.53
194.227	2268.87
194.302	2260.64
194.378	2265.69
194.453	2263.55
194.529	2277.78
194.604	2261.83
194.679	2254.36
194.755	2233.57
194.83	2244.57
194.905	2243.33
194.981	2252.18
195.056	2246.43
195.131	2249.52
195.207	2247.76
195.282	2241.1
195.357	2217.25
195.433	2235.05
195.508	2219.15
195.583	2227.38
195.659	2243.81
195.734	2252.37
195.809	2254.13
195.884	2261.7
195.96	2262.74
196.035	2277.3
196.11	2269.35
196.185	2281.54
196.261	2286.58
196.336	2320.18
196.411	2307.33
196.486	2312.13
196.561	2307.28
196.637	2316.79
196.712	2335.5
196.787	2339.84
196.862	2356.16
196.937	2367.82
197.013	2369.72
197.088	2380.95
197.163	2403.05
197.238	2419.3
197.313	2421.87
197.388	2437.1
197.464	2471.91
197.539	2482.48
197.614	2476.2
197.689	2491.2
197.764	2508.1
197.839	2529.44
197.914	2519.82
197.989	2542.91
198.065	2559.01
198.14	2607.47
198.215	2637.47
198.29	2649.91
198.365	2662.77
198.44	2668.44
198.515	2701.55
198.59	2718.27
198.665	2748.67
198.74	2756.15
198.815	2757.3
198.89	2775.45
198.965	2806.72
199.04	2801.23
199.115	2817.34
199.19	2862.84
199.265	2865.51
199.34	2875.71
199.415	2911.81
199.49	2934.48
199.565	2945.88
199.64	2969.38
199.715	2967.75
199.79	2971.09
199.865	2980.58
199.94	2979.77
200.015	3014.09
200.09	3018.48
200.165	3027.16
200.24	3032.83
200.315	3078.79
200.39	3091.71
200.464	3101.39
200.539	3100.87
200.614	3116.65
200.689	3143.12
200.764	3149.61
200.839	3169.43
200.914	3176.49
200.989	3164.18
201.063	3179.97
201.138	3164.24
201.213	3165.05
201.288	3145.07
201.363	3152.89
201.438	3152.89
201.512	3169.48
201.587	3154.88
201.662	3156.27
201.737	3167.28
201.812	3173.82
201.886	3137.83
201.961	3153.1
202.036	3142.89
202.111	3137.46
202.186	3107.38
202.26	3091.02
202.335	3070.75
202.41	3064.55
202.485	3045.63
202.559	3030.03
202.634	3007.1
202.709	3017.2
202.784	2999.04
202.858	3004.18
202.933	2986.74
203.008	2982.16
203.082	2968.29
203.157	2970.19
203.232	2936.16
203.306	2925.58
203.381	2902.88
203.456	2889.67
203.53	2875.36
203.605	2867.35
203.68	2861.68
203.754	2871.68
203.829	2872.49
203.904	2869.58
203.978	2879.07
204.053	2908.68
204.127	2917.07
204.202	2937.15
204.277	2945.87
204.351	2966.99
204.426	2990.23
204.5	3018.46
204.575	3020.17
204.65	3067.6
204.724	3101.06
204.799	3150.88
204.873	3191.5
204.948	3238.98
205.022	3278.62
205.097	3321.17
205.171	3389.27
205.246	3457.05
205.32	3518.27
205.395	3581.89
205.469	3640.89
205.544	3718.93
205.618	3772.16
205.693	3860.71
205.767	3926.65
205.842	4032.22
205.916	4118.84
205.991	4199.71
206.065	4301.5
206.14	4417.88
206.214	4511.71
206.289	4613.87
206.363	4738.81
206.438	4853.72
206.512	4973.98
206.586	5112.02
206.661	5242.34
206.735	5347.45
206.81	5476.39
206.884	5620.09
206.958	5740.58
207.033	5892.43
207.107	6036.98
207.181	6218.06
207.256	6359.42
207.33	6530.29
207.405	6693.24
207.479	6865.23
207.553	7030.4
207.628	7168.46
207.702	7339.29
207.776	7497.95
207.851	7661.5
207.925	7840.5
207.999	8005.03
208.073	8172.12
208.148	8341.12
208.222	8503.71
208.296	8708.23
208.371	8896.06
208.445	9087.59
208.519	9292.98
208.593	9486.09
208.668	9656.31
208.742	9825.96
208.816	10012.09
208.89	10209.16
208.965	10396.24
209.039	10588.66
209.113	10783.93
209.187	10989.16
209.261	11169.37
209.336	11375.32
209.41	11581.58
209.484	11758.6
209.558	11972.25
209.632	12178.2
209.707	12374.99
209.781	12585.96
209.855	12784.41
209.929	12994.77
210.003	13194.33
210.077	13377.74
210.151	13611.77
210.226	13839.91
210.3	14058.28
210.374	14256.44
210.448	14443.47
210.522	14624.62
210.596	14810.88
210.67	15003.79
210.744	15226.39
210.818	15437.94
210.892	15635.28
210.966	15804.03
211.041	16001.55
211.115	16159.84
211.189	16350.8
211.263	16539.45
211.337	16707.32
211.411	16880.54
211.485	17031.67
211.559	17193.22
211.633	17350.68
211.707	17477.96
211.781	17638.92
211.855	17763.06
211.929	17913.91
212.003	18048.51
212.077	18211.88
212.151	18370.86
212.225	18523.92
212.299	18664.49
212.373	18800.15
212.447	18930.4
212.52	19088.13
212.594	19227.45
212.668	19377.95
212.742	19505.42
212.816	19629.56
212.89	19758.81
212.964	19889.69
213.038	20017.31
213.112	20153.88
213.186	20306.9
213.26	20410.36
213.333	20486.65
213.407	20617.21
213.481	20732.73
213.555	20862.9
213.629	20968.4
213.703	21067.98
213.777	21176.81
213.85	21264.38
213.924	21408.27
213.998	21517.2
214.072	21631.63
214.146	21727.6
214.219	21832.15
214.293	21922.54
214.367	22025.84
214.441	22136.61
214.515	22229.31
214.588	22311.31
214.662	22368.97
214.736	22437.52
214.81	22537.6
214.883	22633.1
214.957	22707.44
215.031	22791.47
215.105	22849.46
215.178	22923.28
215.252	23007.37
215.326	23072.6
215.4	23138.75
215.473	23159.73
215.547	23229.75
215.621	23292.06
215.694	23377.08
215.768	23411.27
215.842	23470.19
215.915	23535.98
215.989	23568.09
216.063	23623.07
216.136	23687.94
216.21	23758.92
216.284	23839.9
216.357	23908.3
216.431	23969.02
216.504	24030.9
216.578	24115.5
216.652	24188.57
216.725	24244.19
216.799	24300.82
216.873	24352.14
216.946	24407.03
217.02	24464.68
217.093	24504.96
217.167	24533.32
217.24	24559.52
217.314	24606.6
217.387	24650.83
217.461	24685.38
217.535	24753.11
217.608	24797.4
217.682	24839.43
217.755	24898.29
217.829	24925.94
217.902	24963.19
217.976	25002.7
218.049	25027.99
218.123	25044.06
218.196	25084.39
218.27	25115.66
218.343	25148.72
218.417	25187.61
218.49	25224.53
218.563	25274.09
218.637	25315.3
218.71	25373.94
218.784	25414.81
218.857	25474.17
218.931	25513.4
219.004	25538.26
219.077	25571.13
219.151	25596.8
219.224	25625.52
219.298	25651.39
219.371	25700.82
219.444	25703.81
219.518	25728.52
219.591	25770.17
219.665	25826.51
219.738	25855.71
219.811	25875.26
219.885	25909.53
219.958	25945.73
220.031	25973.49
220.105	26001.44
220.178	26025.09
220.251	26036.73
220.325	26063.28
220.398	26082.11
220.471	26107.79
220.544	26143.85
220.618	26155.97
220.691	26180.83
220.764	26201.15
220.838	26231.38
220.911	26235.09
220.984	26289.89
221.057	26313.06
221.131	26325.08
221.204	26314.79
221.277	26344.54
221.35	26382
221.424	26367.86
221.497	26374.81
221.57	26387.31
221.643	26386.15
221.716	26398.76
221.79	26397.98
221.863	26387.65
221.936	26389.48
222.009	26387.8
222.082	26399.77
222.155	26403.78
222.229	26410.92
222.302	26415.36
222.375	26401.6
222.448	26403.63
222.521	26395.76
222.594	26392.67
222.667	26372.93
222.74	26371.86
222.814	26360.95
222.887	26363.7
222.96	26379.54
223.033	26382.49
223.106	26362.31
223.179	26365.73
223.252	26354
223.325	26346.52
223.398	26351.78
223.471	26348.45
223.544	26349.03
223.617	26327.88
223.69	26310.6
223.763	26299.59
223.837	26294.52
223.91	26293.02
223.983	26261.5
224.056	26236.49
224.129	26220.32
224.202	26231.23
224.275	26213.9
224.348	26192.75
224.42	26157.94
224.493	26122.55
224.566	26103.63
224.639	26106.33
224.712	26084.17
224.785	26054.48
224.858	26031.75
224.931	26010.17
225.004	25975.41
225.077	25949.68
225.15	25909.38
225.223	25896.83
225.296	25890.94
225.369	25847.26
225.442	25809.89
225.514	25792.52
225.587	25775.29
225.66	25765.87
225.733	25740.05
225.806	25721.71
225.879	25700.33
225.952	25670.93
226.025	25678.17
226.097	25666.15
226.17	25640.86
226.243	25590.28
226.316	25572.67
226.389	25548.39
226.461	25523.78
226.534	25507.18
226.607	25472.82
226.68	25477.88
226.753	25453.8
226.825	25408.19
226.898	25404.19
226.971	25388.74
227.044	25368.96
227.117	25350.33
227.189	25322.24
227.262	25309.07
227.335	25292.61
227.407	25252.8
227.48	25225.25
227.553	25186.16
227.626	25150.78
227.698	25118.84
227.771	25103.98
227.844	25074.45
227.916	25058.82
227.989	25021.28
228.062	24996.48
228.134	24992.23
228.207	24947.94
228.28	24914.45
228.352	24877.74
228.425	24835.57
228.498	24804.21
228.57	24765.03
228.643	24738.4
228.716	24714.71
228.788	24669.5
228.861	24635.63
228.934	24626.46
229.006	24599.88
229.079	24570.89
229.151	24537.79
229.224	24488.78
229.296	24471.66
229.369	24468.38
229.442	24444.64
229.514	24400.65
229.587	24380
229.659	24335.57
229.732	24320.96
229.804	24302.92
229.877	24309.91
229.949	24301.47
230.022	24296.45
230.094	24277.45
230.167	24251.69
230.239	24209.05
230.312	24184.89
230.384	24172.34
230.457	24138.92
230.529	24112.49
230.602	24072.65
230.674	24044.72
230.747	24040.96
230.819	24019.2
230.892	23963.73
230.964	23940.49
231.037	23922.79
231.109	23881.36
231.181	23855.41
231.254	23813.94
231.326	23785.29
231.399	23744.24
231.471	23692.3
231.544	23635.92
231.616	23613.64
231.688	23574.53
231.761	23543.19
231.833	23511.89
231.905	23446.54
231.978	23419.01
232.05	23381.35
232.122	23367.02
232.195	23321.02
232.267	23298.6
232.339	23253.85
232.412	23231.14
232.484	23190
232.556	23154.08
232.629	23151.48
232.701	23121.24
232.773	23083.01
232.846	23033.64
232.918	23006.54
232.99	22978.28
233.062	22949.3
233.135	22910.54
233.207	22863.53
233.279	22823.47
233.351	22797.91
233.424	22757.95
233.496	22703.42
233.568	22685.97
233.64	22623.53
233.713	22594.17
233.785	22545.62
233.857	22514.04
233.929	22467.42
234.001	22451.85
234.074	22431.75
234.146	22369.07
234.218	22332.87
234.29	22296.18
234.362	22252.8
234.434	22187.28
234.507	22145.54
234.579	22092.13
234.651	22046.91
234.723	22024.98
234.795	22004.59
234.867	21951.75
234.939	21928.95
235.012	21907.12
235.084	21875.25
235.156	21846.62
235.228	21799.38
235.3	21752.63
235.372	21716.24
235.444	21689
235.516	21620.12
235.588	21574.57
235.66	21535.86
235.732	21488.82
235.804	21513.31
235.876	21483.91
235.948	21472.1
236.02	21436.14
236.092	21399.22
236.164	21361.29
236.236	21317.43
236.308	21264.8
236.38	21229.52
236.452	21183.15
236.524	21141.8
236.596	21116.25
236.668	21091.14
236.74	21057.5
236.812	21033.74
236.884	21006.08
236.956	20960.1
237.028	20913.5
237.1	20875.33
237.172	20851.9
237.244	20835.56
237.316	20749.34
237.388	20707.94
237.46	20650.54
237.532	20622.83
237.604	20582.06
237.675	20557.38
237.747	20528.37
237.819	20480.51
237.891	20438.54
237.963	20395.36
238.035	20340.03
238.107	20259.41
238.178	20231.21
238.25	20192.37
238.322	20182.64
238.394	20116.28
238.466	20071.07
238.538	20040.66
238.609	20002.69
238.681	19944.38
238.753	19891.13
238.825	19853.39
238.897	19818.36
238.968	19806.69
239.04	19759.76
239.112	19751.81
239.184	19699.81
239.255	19653.5
239.327	19620.73
239.399	19583.96
239.471	19552.97
239.542	19531.19
239.614	19511.48
239.686	19441.46
239.758	19405.32
239.829	19344.69
239.901	19317.9
239.973	19283.64
240.044	19258.48
240.116	19219.3
240.188	19179.69
240.259	19138.78
240.331	19100.03
240.403	19072.13
240.474	19008.81
240.546	18957.49
240.618	18892
240.689	18849.11
240.761	18804.29
240.833	18779.43
240.904	18739.43
240.976	18701.79
241.048	18667
241.119	18633.75
241.191	18603.87
241.262	18588.02
241.334	18540.41
241.405	18509.85
241.477	18466.67
241.549	18420.6
241.62	18381.14
241.692	18360.46
241.763	18334.58
241.835	18290.88
241.906	18245.58
241.978	18192.28
242.049	18171.99
242.121	18150.01
242.192	18135.27
242.264	18089.92
242.335	18030.84
242.407	17995.37
242.478	17953.44
242.55	17912.96
242.621	17862.02
242.693	17820.1
242.764	17772.05
242.836	17733.21
242.907	17695.81
242.979	17664.58
243.05	17622.51
243.122	17592.73
243.193	17542.85
243.264	17483.14
243.336	17446.66
243.407	17412.92
243.479	17396.68
243.55	17360.83
243.622	17321.98
243.693	17275.48
243.764	17258.8
243.836	17221.31
243.907	17185.45
243.978	17142.75
244.05	17110.36
244.121	17060.15
244.192	17029.2
244.264	16975.23
244.335	16933.2
244.407	16879.85
244.478	16849.73
244.549	16813.1
244.62	16771.99
244.692	16735.41
244.763	16713.87
244.834	16668.22
244.906	16627.5
244.977	16600.12
245.048	16575.64
245.119	16534.63
245.191	16490.67
245.262	16429.41
245.333	16419.58
245.405	16388.45
245.476	16362.23
245.547	16325.98
245.618	16305.35
245.689	16283.91
245.761	16266.02
245.832	16237.78
245.903	16213.2
245.974	16182.69
246.045	16151.79
246.117	16132.42
246.188	16084.61
246.259	16039.35
246.33	16000.45
246.401	15966.03
246.473	15918.22
246.544	15877.25
246.615	15844.72
246.686	15807.51
246.757	15796.47
246.828	15746.92
246.899	15728.12
246.97	15678.91
247.042	15639.58
247.113	15617.84
247.184	15601.36
247.255	15552.96
247.326	15519.9
247.397	15485.96
247.468	15449.96
247.539	15424.46
247.61	15374.62
247.681	15358.47
247.752	15338.9
247.823	15306.85
247.894	15278.6
247.965	15231.99
248.037	15191.98
248.108	15151.63
248.179	15120.11
248.25	15078.75
248.321	15051.52
248.392	15001.24
248.463	14998.25
248.534	14971.31
248.605	14941.18
248.675	14907.97
248.746	14882.08
248.817	14861.45
248.888	14847.33
248.959	14800.43
249.03	14773.34
249.101	14746.15
249.172	14705.85
249.243	14655.14
249.314	14642.03
249.385	14609.2
249.456	14590.88
249.527	14563.55
249.598	14539.16
249.669	14514.23
249.739	14493.65
249.81	14479.82
249.881	14444.34
249.952	14409.39
250.023	14378.3
250.094	14339.35
250.165	14292.3
250.235	14268.92
250.306	14244.14
250.377	14194.59
250.448	14176.36
250.519	14124.06
250.59	14112.73
250.66	14083.52
250.731	14073.44
250.802	14042.45
250.873	14024.95
250.944	13997.95
251.014	13967.82
251.085	13971.63
251.156	13952.06
251.227	13945.12
251.297	13923.14
251.368	13907.57
251.439	13895.76
251.51	13886.6
251.58	13852.32
251.651	13820.22
251.722	13805.32
251.792	13757.4
251.863	13731.08
251.934	13716.43
252.005	13718.45
252.075	13689.19
252.146	13680.22
252.217	13669.23
252.287	13661.28
252.358	13636.5
252.429	13632.69
252.499	13602.95
252.57	13573.01
252.641	13557.39
252.711	13515.6
252.782	13477.71
252.852	13473.66
252.923	13449.41
252.994	13416.44
253.064	13406.17
253.135	13381.59
253.205	13349.58
253.276	13350.2
253.347	13347.89
253.417	13316.41
253.488	13293.03
253.558	13266.81
253.629	13242.65
253.699	13225.15
253.77	13208.86
253.841	13179.26
253.911	13162
253.982	13145.71
254.052	13138.19
254.123	13122.28
254.193	13111.77
254.264	13135.59
254.334	13105.89
254.405	13067.42
254.475	13042.5
254.546	13017.68
254.616	13013.48
254.687	12999.41
254.757	12982.68
254.827	12960.45
254.898	12940.3
254.968	12914.8
255.039	12885.88
255.109	12872.62
255.18	12841.72
255.25	12788.41
255.321	12776.36
255.391	12740.2
255.461	12735
255.532	12679.27
255.602	12646.78
255.673	12602.05
255.743	12565.46
255.813	12515.57
255.884	12510.17
255.954	12495.8
256.024	12495.66
256.095	12471.61
256.165	12438.54
256.235	12420.89
256.306	12391.83
256.376	12388.98
256.446	12378.38
256.517	12366.09
256.587	12353.94
256.657	12336.3
256.728	12327.19
256.798	12308.58
256.868	12284.24
256.938	12261.53
257.009	12256.13
257.079	12243.84
257.149	12250.45
257.219	12204.41
257.29	12195.21
257.36	12155.3
257.43	12142.76
257.5	12097.36
257.571	12074.65
257.641	12058.75
257.711	12020.62
257.781	12003.41
257.852	11989.09
257.922	11954.78
257.992	11940.41
258.062	11921.42
258.132	11911.1
258.202	11886.23
258.273	11866.71
258.343	11868.06
258.413	11836.11
258.483	11821.02
258.553	11792.53
258.623	11765.4
258.693	11755.56
258.764	11755.18
258.834	11748.96
258.904	11729.73
258.974	11708.14
259.044	11679.07
259.114	11667.26
259.184	11656.03
259.254	11637.86
259.324	11596.94
259.394	11578.87
259.464	11574.29
259.535	11552.41
259.605	11523.44
259.675	11501.03
259.745	11487.73
259.815	11456.74
259.885	11433.99
259.955	11441.17
260.025	11413.51
260.095	11397.27
260.165	11379.92
260.235	11374.71
260.305	11352.25
260.375	11322.57
260.445	11325.31
260.515	11333.75
260.585	11329.6
260.655	11309.6
260.725	11301.89
260.795	11298.08
260.865	11305.31
260.934	11269.89
261.004	11258.37
261.074	11242.95
261.144	11243.57
261.214	11238.03
261.284	11223.38
261.354	11223.14
261.424	11195.33
261.494	11201.98
261.564	11186.8
261.634	11173.74
261.703	11132.73
261.773	11120.1
261.843	11112.3
261.913	11098.08
