Data from 20250703_urea_0.1M_MAYP1162681_10-11-05-085.txt Node
Date: Fri Jul 04 10:11:05 BST 2025
User: adleo
Spectrometer: MAYP116268
Trigger mode: 0
Integration Time (sec): 1.000000E0
Scans to average: 1
Electric dark correction enabled: true
Nonlinearity correction enabled: true
Boxcar width: 10
XAxis mode: Wavelengths
Number of Pixels in Spectrum: 2068
>>>>>Begin Spectral Data<<<<<
179.565	1228.66
179.642	1282.99
179.718	1321.98
179.795	1361.25
179.871	1394.55
179.948	1411.65
180.024	1433.07
180.101	1456.66
180.177	1470.63
180.254	1492.73
180.33	1514.2
180.407	1568.47
180.483	1665.43
180.56	1756.75
180.636	1842.02
180.712	1828.04
180.789	1838.35
180.865	1850.76
180.942	1856.98
181.018	1868.01
181.095	1878.33
181.171	1881.7
181.248	1884.13
181.324	1902.15
181.4	1909.57
181.477	1918.98
181.553	1933.33
181.63	1953.88
181.706	1970.28
181.782	1978.98
181.859	1979.36
181.935	1985.92
182.011	1982.45
182.088	1999.57
182.164	2017.08
182.24	2029.96
182.317	2039.57
182.393	2036.38
182.469	2049.93
182.546	2066.63
182.622	2069.48
182.698	2065.53
182.775	2079.42
182.851	2094.02
182.927	2089.32
183.003	2084.47
183.08	2078.52
183.156	2086.27
183.232	2080.95
183.308	2067.87
183.385	2074.76
183.461	2095.07
183.537	2094.74
183.613	2109.68
183.69	2099.97
183.766	2092.69
183.842	2099.45
183.918	2104.54
183.995	2121.42
184.071	2125.66
184.147	2119.38
184.223	2109.11
184.299	2121.24
184.375	2109.87
184.452	2114.77
184.528	2162.2
184.604	2172.62
184.68	2185.32
184.756	2194.79
184.832	2201.5
184.908	2206.49
184.985	2205.39
185.061	2183.61
185.137	2193.03
185.213	2179.19
185.289	2178.85
185.365	2169.01
185.441	2167.06
185.517	2181.86
185.593	2175.24
185.669	2172.29
185.745	2180.1
185.822	2197.22
185.898	2190.7
185.974	2197.55
186.05	2188.65
186.126	2156.87
186.202	2153.3
186.278	2150.26
186.354	2139.41
186.43	2146.59
186.506	2146.4
186.582	2147.97
186.658	2159.2
186.734	2139.84
186.81	2143.26
186.886	2148.73
186.962	2163
187.038	2162.53
187.114	2154.63
187.19	2163.48
187.266	2151.58
187.341	2155.3
187.417	2146.73
187.493	2145.26
187.569	2147.12
187.645	2142.31
187.721	2126.85
187.797	2130.13
187.873	2134.7
187.949	2129.75
188.025	2123.13
188.101	2126.37
188.176	2131.36
188.252	2125.61
188.328	2132.74
188.404	2133.6
188.48	2129.08
188.556	2120.8
188.632	2119.66
188.707	2120.85
188.783	2115.9
188.859	2111.53
188.935	2098.16
189.011	2107.57
189.086	2102.15
189.162	2095.21
189.238	2093.73
189.314	2090.5
189.39	2086.55
189.465	2079.18
189.541	2094.93
189.617	2078.52
189.693	2071.34
189.768	2071.43
189.844	2094.18
189.92	2088.18
189.996	2099.51
190.071	2109.12
190.147	2109.69
190.223	2115.25
190.298	2103.88
190.374	2091.61
190.45	2103.93
190.526	2113.06
190.601	2107.45
190.677	2110.44
190.753	2137.91
190.828	2142.28
190.904	2158.88
190.98	2174.4
191.055	2184.86
191.131	2172.11
191.207	2195.61
191.282	2207.41
191.358	2200.65
191.433	2187.18
191.509	2197.84
191.585	2190.51
191.66	2190.22
191.736	2196.79
191.811	2192.41
191.887	2211.35
191.963	2238.47
192.038	2247.75
192.114	2247.47
192.189	2252.37
192.265	2247.23
192.34	2225.52
192.416	2222.1
192.491	2217.67
192.567	2218.53
192.642	2220.62
192.718	2226.43
192.793	2212.06
192.869	2207.11
192.944	2210.39
193.02	2215.53
193.095	2222.67
193.171	2228.47
193.246	2228.04
193.322	2226.28
193.397	2225.05
193.473	2210.29
193.548	2188.59
193.624	2190.64
193.699	2189.16
193.775	2204.97
193.85	2206.11
193.925	2218.34
194.001	2218.34
194.076	2213.86
194.152	2204.63
194.227	2194.54
194.302	2181.56
194.378	2187.03
194.453	2181.75
194.529	2193.65
194.604	2182.37
194.679	2178.71
194.755	2160.11
194.83	2175.01
194.905	2172.11
194.981	2179.01
195.056	2174.92
195.131	2180.82
195.207	2181.48
195.282	2172.49
195.357	2150.69
195.433	2168.53
195.508	2153.88
195.583	2160.01
195.659	2172.1
195.734	2180.1
195.809	2180.67
195.884	2192.22
195.96	2189.08
196.035	2206.35
196.11	2203.69
196.185	2216.2
196.261	2217.68
196.336	2246.98
196.411	2232.13
196.486	2238.51
196.561	2234.94
196.637	2238.79
196.712	2257.36
196.787	2259.07
196.862	2273.15
196.937	2283.24
197.013	2285.62
197.088	2297.66
197.163	2322.27
197.238	2338.18
197.313	2335.42
197.388	2350.93
197.464	2382.5
197.539	2396.87
197.614	2388.97
197.689	2400.4
197.764	2417.92
197.839	2436.2
197.914	2433.49
197.989	2455.87
198.065	2469.05
198.14	2518.94
198.215	2547.88
198.29	2557.94
198.365	2572.46
198.44	2586.7
198.515	2617.71
198.59	2634.33
198.665	2662.15
198.74	2670.72
198.815	2671.3
198.89	2700.78
198.965	2731.28
199.04	2725.04
199.115	2740.8
199.19	2786.63
199.265	2790.44
199.34	2799.54
199.415	2833.29
199.49	2852.78
199.565	2862.59
199.64	2885.23
199.715	2884.42
199.79	2891.19
199.865	2898.29
199.94	2896.72
200.015	2927.85
200.09	2932.42
200.165	2937.09
200.24	2941.72
200.315	2981.84
200.39	2998.53
200.464	3000.96
200.539	3002.44
200.614	3019.69
200.689	3041.86
200.764	3047.35
200.839	3063.03
200.914	3067.17
200.989	3057.73
201.063	3075.9
201.138	3060.22
201.213	3062.75
201.288	3041.39
201.363	3047.06
201.438	3049.45
201.512	3065.89
201.587	3048.96
201.662	3050.34
201.737	3066.17
201.812	3073.23
201.886	3041.02
201.961	3052.28
202.036	3039.98
202.111	3035.59
202.186	3007.1
202.26	2989.17
202.335	2965.9
202.41	2962.42
202.485	2949.22
202.559	2929.44
202.634	2900.12
202.709	2908.17
202.784	2892.06
202.858	2894.68
202.933	2877.28
203.008	2871.18
203.082	2856.45
203.157	2856.36
203.232	2820.82
203.306	2806.66
203.381	2780.96
203.456	2759.95
203.53	2742.73
203.605	2729.2
203.68	2714.04
203.754	2714.57
203.829	2710.85
203.904	2701.51
203.978	2702.23
204.053	2714.28
204.127	2713.95
204.202	2726.44
204.277	2723.24
204.351	2725.1
204.426	2730.92
204.5	2742.45
204.575	2723.82
204.65	2747.37
204.724	2761.73
204.799	2786.26
204.873	2798.37
204.948	2816.71
205.022	2827.77
205.097	2842.27
205.171	2878.87
205.246	2916.59
205.32	2944.9
205.395	2972.51
205.469	2994.86
205.544	3028.68
205.618	3041.89
205.693	3085.87
205.767	3106.81
205.842	3166.5
205.916	3203.56
205.991	3234.09
206.065	3281.34
206.14	3340.67
206.214	3384.17
206.289	3421.75
206.363	3479.98
206.438	3532.95
206.512	3591.88
206.586	3667.61
206.661	3729.97
206.735	3770.27
206.81	3825.77
206.884	3901.69
206.958	3951.52
207.033	4030.07
207.107	4101.95
207.181	4202.37
207.256	4267.27
207.33	4359.47
207.405	4442.19
207.479	4529.97
207.553	4618.2
207.628	4673.79
207.702	4757.1
207.776	4828.01
207.851	4907.09
207.925	5003.56
207.999	5079.38
208.073	5161.05
208.148	5240.97
208.222	5311.99
208.296	5423.28
208.371	5519.76
208.445	5614.83
208.519	5724.56
208.593	5824.78
208.668	5903.84
208.742	5986.62
208.816	6068.73
208.89	6166.59
208.965	6250.71
209.039	6345.95
209.113	6448.89
209.187	6553.97
209.261	6637.25
209.336	6746.08
209.41	6854.34
209.484	6944.85
209.558	7061.51
209.632	7160.53
209.707	7265.09
209.781	7374.23
209.855	7480.85
209.929	7592.23
210.003	7682.95
210.077	7772.86
210.151	7909.97
210.226	8034.45
210.3	8152.7
210.374	8266.01
210.448	8357.46
210.522	8452.88
210.596	8552.82
210.67	8645.41
210.744	8780.69
210.818	8909.7
210.892	9013.68
210.966	9098.25
211.041	9197.85
211.115	9277.29
211.189	9382.87
211.263	9481.38
211.337	9569.59
211.411	9665.72
211.485	9741.34
211.559	9839.63
211.633	9922.22
211.707	9975.5
211.781	10069.3
211.855	10123.16
211.929	10198.63
212.003	10262.41
212.077	10353.32
212.151	10451.13
212.225	10545.66
212.299	10620.88
212.373	10681.73
212.447	10754.88
212.52	10862.24
212.594	10940.3
212.668	11025.54
212.742	11096.67
212.816	11173.73
212.89	11241.2
212.964	11315.9
213.038	11397.11
213.112	11486.66
213.186	11587.72
213.26	11638.52
213.333	11671.63
213.407	11743.78
213.481	11824.6
213.555	11905.76
213.629	11971.32
213.703	12016.96
213.777	12082.08
213.85	12127.73
213.924	12236.33
213.998	12305.31
214.072	12372.32
214.146	12438.26
214.219	12508.4
214.293	12568.84
214.367	12634.16
214.441	12721.7
214.515	12773.52
214.588	12809
214.662	12843.03
214.736	12877.88
214.81	12935.97
214.883	13002.54
214.957	13054.94
215.031	13105.65
215.105	13154.73
215.178	13198.45
215.252	13257.16
215.326	13293.51
215.4	13334.73
215.473	13349.67
215.547	13388.77
215.621	13423.28
215.694	13480.46
215.768	13508.66
215.842	13551.13
215.915	13590.51
215.989	13619.34
216.063	13667.45
216.136	13728.19
216.21	13778.52
216.284	13846.05
216.357	13914.65
216.431	13960.06
216.504	14025.19
216.578	14088
216.652	14142.28
216.725	14184.85
216.799	14248.28
216.873	14298.23
216.946	14356.65
217.02	14400.52
217.093	14451.09
217.167	14483.33
217.24	14515.68
217.314	14567.5
217.387	14611.75
217.461	14655.38
217.535	14715.2
217.608	14752.03
217.682	14796.71
217.755	14844.82
217.829	14884.44
217.902	14932.02
217.976	14981.43
218.049	15021.2
218.123	15060.91
218.196	15116.49
218.27	15166.43
218.343	15189.66
218.417	15238.2
218.49	15289.35
218.563	15352.3
218.637	15400.74
218.71	15470.97
218.784	15531.32
218.857	15579.76
218.931	15628.35
219.004	15677.17
219.077	15730.1
219.151	15786.68
219.224	15836.33
219.298	15887.42
219.371	15945.93
219.444	15984.16
219.518	16037.95
219.591	16089.33
219.665	16164.51
219.738	16212.37
219.811	16253.92
219.885	16320.44
219.958	16376.54
220.031	16415.43
220.105	16462.33
220.178	16509.61
220.251	16555.78
220.325	16608.84
220.398	16665.81
220.471	16721.77
220.544	16778.35
220.618	16814.79
220.691	16860.38
220.764	16910.16
220.838	16963.9
220.911	17001.3
220.984	17068.72
221.057	17117.4
221.131	17166.08
221.204	17176.1
221.277	17241.69
221.35	17314.41
221.424	17345.5
221.497	17383.09
221.57	17427.09
221.643	17472.3
221.716	17528.34
221.79	17557.45
221.863	17596.82
221.936	17640.63
222.009	17682.08
222.082	17727.57
222.155	17766.17
222.229	17826.6
222.302	17869.98
222.375	17899.52
222.448	17947.56
222.521	17984
222.594	18018.65
222.667	18051.8
222.74	18103.17
222.814	18129.92
222.887	18166.21
222.96	18219.6
223.033	18269.91
223.106	18317.86
223.179	18361.33
223.252	18392.41
223.325	18429.18
223.398	18457.23
223.471	18489.61
223.544	18524.84
223.617	18556.4
223.69	18591.49
223.763	18600.59
223.837	18638.23
223.91	18686.66
223.983	18697.94
224.056	18707.24
224.129	18745.6
224.202	18777.21
224.275	18796.82
224.348	18804.63
224.42	18817.35
224.493	18823.28
224.566	18827.71
224.639	18847.86
224.712	18857.3
224.785	18877.25
224.858	18898.17
224.931	18914.02
225.004	18932.53
225.077	18960.19
225.15	18949.87
225.223	18974.35
225.296	19022.64
225.369	19018.54
225.442	19022.06
225.514	19049.29
225.587	19079.89
225.66	19090.54
225.733	19110.15
225.806	19141.14
225.879	19171.16
225.952	19173.38
226.025	19200.94
226.097	19254.67
226.17	19269.76
226.243	19266.24
226.316	19284.89
226.389	19303.68
226.461	19322.82
226.534	19340.02
226.607	19348.93
226.68	19404.26
226.753	19424.21
226.825	19423.19
226.898	19461.51
226.971	19482.76
227.044	19504.3
227.117	19519.67
227.189	19549.31
227.262	19573.07
227.335	19587.91
227.407	19596.97
227.48	19625.59
227.553	19649.06
227.626	19643.86
227.698	19661.25
227.771	19696.91
227.844	19703.13
227.916	19725.92
227.989	19729.54
228.062	19731.61
228.134	19763.08
228.207	19757.34
228.28	19752.53
228.352	19762.69
228.425	19764.43
228.498	19788.62
228.57	19779.08
228.643	19801.92
228.716	19800.67
228.788	19804.57
228.861	19809.82
228.934	19830.88
229.006	19839.32
229.079	19840.86
229.151	19851.41
229.224	19841.58
229.296	19844.38
229.369	19878.11
229.442	19891.61
229.514	19885.58
229.587	19902.21
229.659	19887.8
229.732	19899.03
229.804	19918.59
229.877	19937
229.949	19957.15
230.022	19968.71
230.094	19979.46
230.167	19987.26
230.239	19980.81
230.312	19982.49
230.384	20003.51
230.457	20015.55
230.529	20021.63
230.602	20021.77
230.674	20020.32
230.747	20043.5
230.819	20053.43
230.892	20019.41
230.964	20018.2
231.037	20032.9
231.109	20036.76
231.181	20040.23
231.254	20028.52
231.326	20019.99
231.399	20023.07
231.471	20012.03
231.544	19989.05
231.616	20002.35
231.688	19992.13
231.761	19983.7
231.833	19974.93
231.905	19951.17
231.978	19944.47
232.05	19936.61
232.122	19936.47
232.195	19930.35
232.267	19934.4
232.339	19932.08
232.412	19944.47
232.484	19932.52
232.556	19928.33
232.629	19948.33
232.701	19953.43
232.773	19956.42
232.846	19958.64
232.918	19956.08
232.99	19951.26
233.062	19949.72
233.135	19936.61
233.207	19914.35
233.279	19917.1
233.351	19916.9
233.424	19905.63
233.496	19876.47
233.568	19882.06
233.64	19861.58
233.713	19845.34
233.785	19837.1
233.857	19826.79
233.929	19800.48
234.001	19801.63
234.074	19802.64
234.146	19764.86
234.218	19747.66
234.29	19727.42
234.362	19692.53
234.434	19646.99
234.507	19613.45
234.579	19580.34
234.651	19561.84
234.723	19555.19
234.795	19546.42
234.867	19522.61
234.939	19520.59
235.012	19509.55
235.084	19501.02
235.156	19491.14
235.228	19471.14
235.3	19438.66
235.372	19423.34
235.444	19420.35
235.516	19389.7
235.588	19365.17
235.66	19345.46
235.732	19326.62
235.804	19374.28
235.876	19371.25
235.948	19369.85
236.02	19355.78
236.092	19340.26
236.164	19322.53
236.236	19293.71
236.308	19263.11
236.38	19240.17
236.452	19201.81
236.524	19176.99
236.596	19164.37
236.668	19146.97
236.74	19118.3
236.812	19104.08
236.884	19074.88
236.956	19047.75
237.028	19011.51
237.1	18981.2
237.172	18972.14
237.244	18961.39
237.316	18888.48
237.388	18861.01
237.46	18825.4
237.532	18811.47
237.604	18781.98
237.675	18772.34
237.747	18757.98
237.819	18727.33
237.891	18712.39
237.963	18683.24
238.035	18663.82
238.107	18598.62
238.178	18584.5
238.25	18561.13
238.322	18558.19
238.394	18515.25
238.466	18494.43
238.538	18480.07
238.609	18457.71
238.681	18413.47
238.753	18374.49
238.825	18350.25
238.897	18322.15
238.968	18323.16
239.04	18287.41
239.112	18292.66
239.184	18250.59
239.255	18221.19
239.327	18202.78
239.399	18164.57
239.471	18145.39
239.542	18121
239.614	18114.98
239.686	18074.74
239.758	18063.46
239.829	18024.67
239.901	18022.55
239.973	17988.38
240.044	17958.31
240.116	17924.53
240.188	17900
240.259	17868.58
240.331	17834.75
240.403	17816.44
240.474	17765.35
240.546	17727.62
240.618	17668.1
240.689	17630.8
240.761	17603.57
240.833	17583.14
240.904	17557.16
240.976	17525.55
241.048	17499.28
241.119	17466.85
241.191	17437.65
241.262	17424.39
241.334	17374.42
241.405	17340.06
241.477	17300.92
241.549	17264.49
241.62	17239.67
241.692	17201.98
241.763	17182.7
241.835	17147.14
241.906	17109.11
241.978	17067.52
242.049	17052.15
242.121	17032.68
242.192	17017.25
242.264	16973.25
242.335	16925.15
242.407	16901.92
242.478	16864.81
242.55	16825.44
242.621	16790.69
242.693	16745.63
242.764	16695.31
242.836	16666.63
242.907	16634.97
242.979	16614.15
243.05	16590.53
243.122	16574.48
243.193	16552.03
243.264	16495.88
243.336	16468.69
243.407	16449.99
243.479	16430.91
243.55	16407.39
243.622	16386.61
243.693	16357.99
243.764	16342.27
243.836	16311.33
243.907	16271.76
243.978	16245.35
244.05	16224.33
244.121	16178.01
244.192	16162.73
244.264	16120.46
244.335	16090.68
244.407	16042.86
244.478	16001.85
244.549	15969.51
244.62	15918.08
244.692	15885.88
244.763	15866.65
244.834	15829.53
244.906	15789.77
244.977	15755.93
245.048	15733.76
245.119	15690.48
245.191	15644.74
245.262	15582.27
245.333	15561.45
245.405	15527.95
245.476	15499.41
245.547	15466.2
245.618	15442.29
245.689	15411.06
245.761	15384.98
245.832	15353.89
245.903	15330.51
245.974	15308.34
246.045	15274.21
246.117	15265.3
246.188	15223.12
246.259	15181.47
246.33	15145.8
246.401	15104.3
246.473	15056.63
246.544	15014.64
246.615	14995.41
246.686	14962.63
246.757	14962.92
246.828	14924.6
246.899	14911.82
246.97	14865.6
247.042	14830.89
247.113	14812.67
247.184	14802.26
247.255	14775.17
247.326	14745.71
247.397	14713.61
247.468	14683.82
247.539	14649.35
247.61	14602.69
247.681	14579.22
247.752	14562.78
247.823	14521.95
247.894	14496.93
247.965	14467.96
248.037	14435.18
248.108	14384.32
248.179	14353.81
248.25	14315.73
248.321	14295.82
248.392	14255.23
248.463	14251.9
248.534	14218.11
248.605	14198.39
248.675	14161.18
248.746	14135.44
248.817	14123.19
248.888	14106.18
248.959	14062.07
249.03	14047.03
249.101	14018.97
249.172	13993.18
249.243	13945.22
249.314	13942.47
249.385	13923.38
249.456	13897.3
249.527	13868.13
249.598	13849.14
249.669	13827.3
249.739	13801.03
249.81	13772.59
249.881	13741.98
249.952	13714.93
250.023	13695.94
250.094	13644.94
250.165	13607.82
250.235	13581.74
250.306	13540.57
250.377	13498.53
250.448	13482.72
250.519	13431.82
250.59	13421.6
250.66	13389.35
250.731	13380.09
250.802	13358.01
250.873	13334.49
250.944	13317.47
251.014	13288.11
251.085	13288.93
251.156	13270.71
251.227	13269.6
251.297	13261.31
251.368	13244.73
251.439	13234.02
251.51	13218.98
251.58	13193.63
251.651	13168.37
251.722	13148.6
251.792	13117.7
251.863	13093.94
251.934	13084.59
252.005	13094.76
252.075	13068.15
252.146	13051.52
252.217	13043.95
252.287	13020.37
252.358	12992.42
252.429	12988.9
252.499	12958.91
252.57	12938.23
252.641	12916.49
252.711	12879.42
252.782	12844.47
252.852	12847.22
252.923	12812.51
252.994	12788.84
253.064	12776.55
253.135	12738.47
253.205	12715.18
253.276	12708.97
253.347	12699.9
253.417	12666.83
253.488	12635.89
253.558	12613.33
253.629	12590.82
253.699	12572.84
253.77	12560.54
253.841	12536.68
253.911	12515.95
253.982	12496.58
254.052	12488.67
254.123	12469.92
254.193	12455.31
254.264	12472.38
254.334	12431.07
254.405	12403.69
254.475	12371.73
254.546	12348.78
254.616	12348.83
254.687	12328.3
254.757	12308.2
254.827	12291.04
254.898	12280.24
254.968	12265.54
255.039	12238.21
255.109	12231.51
255.18	12200.94
255.25	12153.37
255.321	12143.25
255.391	12115.92
255.461	12127.29
255.532	12071.13
255.602	12046.94
255.673	12007.99
255.743	11968.03
255.813	11928.12
255.884	11918.96
255.954	11911.49
256.024	11916.17
256.095	11895.58
256.165	11869.51
256.235	11855.53
256.306	11824.54
256.376	11815.86
256.446	11799.09
256.517	11784.29
256.587	11769.83
256.657	11757.64
256.728	11742.74
256.798	11727.22
256.868	11699.94
256.938	11666.69
257.009	11664.08
257.079	11654.97
257.149	11662.3
257.219	11626.29
257.29	11607.69
257.36	11569.42
257.43	11557.18
257.5	11511.44
257.571	11486.77
257.641	11473.66
257.711	11438.76
257.781	11425.75
257.852	11409.75
257.922	11375.39
257.992	11357.36
258.062	11337.55
258.132	11327.38
258.202	11311.29
258.273	11292.01
258.343	11297.26
258.413	11269.21
258.483	11250.22
258.553	11215.43
258.623	11185.88
258.693	11173.11
258.764	11177.35
258.834	11179.52
258.904	11163.38
258.974	11140.83
259.044	11119.77
259.114	11108.73
259.184	11100.97
259.254	11081.07
259.324	11043.77
259.394	11033.7
259.464	11031.24
259.535	11011.53
259.605	10978.23
259.675	10946.86
259.745	10927.87
259.815	10888.65
259.885	10866.72
259.955	10869.04
260.025	10850.92
260.095	10838.05
260.165	10825.19
260.235	10821.86
260.305	10792.18
260.375	10759.02
260.445	10766.73
260.515	10769.48
260.585	10755.51
260.655	10741.92
260.725	10739.65
260.795	10729.68
260.865	10733
260.934	10712.72
261.004	10702.26
261.074	10690.7
261.144	10695.51
261.214	10693.78
261.284	10681.69
261.354	10674.02
261.424	10649.25
261.494	10655.18
261.564	10632.73
261.634	10625.45
261.703	10590.52
261.773	10580.16
261.843	10573.8
261.913	10550.53
261.983	10521.23
