Data from 20250703_urea_0.1M_MAYP1162681_08-01-05-720.txt Node
Date: Fri Jul 04 08:01:05 BST 2025
User: adleo
Spectrometer: MAYP116268
Trigger mode: 0
Integration Time (sec): 1.000000E0
Scans to average: 1
Electric dark correction enabled: true
Nonlinearity correction enabled: true
Boxcar width: 10
XAxis mode: Wavelengths
Number of Pixels in Spectrum: 2068
>>>>>Begin Spectral Data<<<<<
179.565	1218.62
179.642	1278.67
179.718	1327.41
179.795	1370.76
179.871	1404.07
179.948	1423.42
180.024	1445.19
180.101	1468.81
180.177	1483.8
180.254	1507.57
180.33	1529.65
180.407	1586.82
180.483	1684.97
180.56	1778.52
180.636	1866.26
180.712	1856.09
180.789	1866.35
180.865	1879.47
180.942	1886.03
181.018	1899.05
181.095	1913.13
181.171	1918.36
181.248	1917.98
181.324	1931.91
181.4	1935.33
181.477	1946.13
181.553	1958.2
181.63	1978.36
181.706	1996.25
181.782	2005.09
181.859	2006.85
181.935	2010.27
182.011	2003.85
182.088	2021.97
182.164	2039.15
182.24	2051.46
182.317	2060.88
182.393	2058.36
182.469	2075.95
182.546	2090.93
182.622	2096.59
182.698	2093.07
182.775	2103.16
182.851	2116.43
182.927	2107.72
183.003	2104.96
183.08	2098.4
183.156	2107.82
183.232	2101.87
183.308	2088.46
183.385	2096.4
183.461	2111.58
183.537	2113.53
183.613	2128.27
183.69	2118.66
183.766	2107.48
183.842	2115.23
183.918	2119.37
183.995	2133.4
184.071	2134.93
184.147	2129.74
184.223	2118.85
184.299	2133.7
184.375	2126.47
184.452	2134.46
184.528	2187.04
184.604	2197.22
184.68	2208.87
184.756	2216.87
184.832	2224.05
184.908	2228.19
184.985	2228.62
185.061	2212.82
185.137	2225.14
185.213	2215.39
185.289	2215.92
185.365	2211.73
185.441	2210.3
185.517	2229.01
185.593	2225.58
185.669	2223.16
185.745	2236.29
185.822	2248.65
185.898	2237.8
185.974	2245.46
186.05	2235.8
186.126	2197.73
186.202	2191.74
186.278	2188.89
186.354	2177.85
186.43	2184.13
186.506	2182.84
186.582	2180.8
186.658	2188.5
186.734	2167.29
186.81	2169
186.886	2173.62
186.962	2185.27
187.038	2183.08
187.114	2170.94
187.19	2174.46
187.266	2164.24
187.341	2161.71
187.417	2156.05
187.493	2156.96
187.569	2158.15
187.645	2154.77
187.721	2144.92
187.797	2153.2
187.873	2159.38
187.949	2154.34
188.025	2146.54
188.101	2150.34
188.176	2158
188.252	2150.44
188.328	2158.9
188.404	2158.57
188.48	2152.29
188.556	2142.82
188.632	2138.4
188.707	2138.16
188.783	2139.16
188.859	2133.5
188.935	2123.51
189.011	2131.79
189.086	2127.51
189.162	2119.85
189.238	2115.38
189.314	2115.57
189.39	2107.86
189.465	2100.15
189.541	2118.18
189.617	2105.58
189.693	2099.64
189.768	2100.87
189.844	2126.95
189.92	2118.82
189.996	2125.1
190.071	2137.23
190.147	2138.37
190.223	2149.74
190.298	2142.61
190.374	2127.62
190.45	2140.27
190.526	2151.93
190.601	2146.36
190.677	2145.41
190.753	2173.11
190.828	2177.01
190.904	2190.19
190.98	2205.71
191.055	2215.74
191.131	2207.08
191.207	2229.97
191.282	2239.96
191.358	2229.87
191.433	2216.92
191.509	2227.48
191.585	2226
191.66	2224.77
191.736	2233.71
191.811	2224.43
191.887	2243.33
191.963	2269.17
192.038	2274.59
192.114	2270.45
192.189	2275.11
192.265	2271.83
192.34	2251.46
192.416	2251.31
192.491	2247.93
192.567	2252.55
192.642	2255.08
192.718	2253.84
192.793	2239.66
192.869	2235.38
192.944	2239.28
193.02	2244.61
193.095	2249.46
193.171	2255.55
193.246	2253.74
193.322	2251.12
193.397	2252.88
193.473	2237.03
193.548	2215.95
193.624	2220.66
193.699	2222.04
193.775	2237.89
193.85	2241.89
193.925	2249.41
194.001	2249.41
194.076	2239.7
194.152	2227.9
194.227	2218.28
194.302	2208.11
194.378	2211.39
194.453	2209.96
194.529	2222.9
194.604	2207.82
194.679	2201.78
194.755	2183.28
194.83	2197.27
194.905	2194.27
194.981	2202.84
195.056	2195.37
195.131	2204.08
195.207	2205.08
195.282	2192.56
195.357	2173.62
195.433	2186.61
195.508	2175.33
195.583	2180.99
195.659	2196.94
195.734	2204.69
195.809	2207.17
195.884	2219.01
195.96	2219.68
196.035	2234.9
196.11	2228.24
196.185	2240.99
196.261	2243.94
196.336	2274.35
196.411	2259.35
196.486	2261.21
196.561	2253.78
196.637	2261.68
196.712	2279.49
196.787	2278.68
196.862	2295.42
196.937	2307.37
197.013	2313.27
197.088	2327.02
197.163	2349.16
197.238	2365.79
197.313	2365.84
197.388	2378.12
197.464	2406.64
197.539	2417.63
197.614	2409.88
197.689	2424.35
197.764	2440.92
197.839	2464.29
197.914	2458.34
197.989	2481.77
198.065	2498.38
198.14	2549.74
198.215	2577.5
198.29	2586.7
198.365	2599.22
198.44	2610.32
198.515	2635.04
198.59	2650.9
198.665	2674.53
198.74	2685.54
198.815	2687.01
198.89	2709.21
198.965	2740.14
199.04	2736.57
199.115	2752.67
199.19	2796.97
199.265	2798.3
199.34	2809.22
199.415	2843.02
199.49	2866.18
199.565	2877.33
199.64	2901.44
199.715	2901.06
199.79	2907.16
199.865	2913.79
199.94	2914.02
200.015	2948.49
200.09	2956.98
200.165	2966.85
200.24	2972.47
200.315	3012.27
200.39	3024.81
200.464	3030.96
200.539	3033.2
200.614	3048.83
200.689	3072.72
200.764	3081.45
200.839	3102.99
200.914	3107.05
200.989	3100.08
201.063	3111.62
201.138	3095.42
201.213	3097.32
201.288	3075.91
201.363	3084.45
201.438	3086.12
201.512	3105.95
201.587	3090.49
201.662	3093.45
201.737	3102.65
201.812	3112.86
201.886	3081.88
201.961	3096.53
202.036	3085.05
202.111	3080.7
202.186	3055.31
202.26	3038.61
202.335	3013.77
202.41	3006.14
202.485	2993.99
202.559	2969.53
202.634	2947.89
202.709	2955.7
202.784	2938.49
202.858	2941.97
202.933	2921
203.008	2915.23
203.082	2893.16
203.157	2892.26
203.232	2853.66
203.306	2838.31
203.381	2809.09
203.456	2789.45
203.53	2772.27
203.605	2760.79
203.68	2746.63
203.754	2746.06
203.829	2740.15
203.904	2728.86
203.978	2724.95
204.053	2736.39
204.127	2738.3
204.202	2749.16
204.277	2745.59
204.351	2754.88
204.426	2761.32
204.5	2772.04
204.575	2758.08
204.65	2791.07
204.724	2803.66
204.799	2833.72
204.873	2849.93
204.948	2871.62
205.022	2881.34
205.097	2896.51
205.171	2935.55
205.246	2973.09
205.32	3001.97
205.395	3033.26
205.469	3061.43
205.544	3109.76
205.618	3130.99
205.693	3179.89
205.767	3207.75
205.842	3273.18
205.916	3305.77
205.991	3341.61
206.065	3389.39
206.14	3453.36
206.214	3498.41
206.289	3543.83
206.363	3609.92
206.438	3671.31
206.512	3738.05
206.586	3819.39
206.661	3887.31
206.735	3931.55
206.81	3993.8
206.884	4075.18
206.958	4127.38
207.033	4212.31
207.107	4284.14
207.181	4389.68
207.256	4454.74
207.33	4546.35
207.405	4633.8
207.479	4731.47
207.553	4817.24
207.628	4885.1
207.702	4975.63
207.776	5047.04
207.851	5133.16
207.925	5233.18
207.999	5310.86
208.073	5394.43
208.148	5483.74
208.222	5560.21
208.296	5677.16
208.371	5783.66
208.445	5884.29
208.519	6008.6
208.593	6109.73
208.668	6196.5
208.742	6286.87
208.816	6387.07
208.89	6493.37
208.965	6583.96
209.039	6681.26
209.113	6790.32
209.187	6911.94
209.261	7004.11
209.336	7125.52
209.41	7237.43
209.484	7330.11
209.558	7444.59
209.632	7549.75
209.707	7651.09
209.781	7761.56
209.855	7874.24
209.929	7986.43
210.003	8084.93
210.077	8170.27
210.151	8312.61
210.226	8435.54
210.3	8561.79
210.374	8672.07
210.448	8767.99
210.522	8873.17
210.596	8983.01
210.67	9088
210.744	9219.63
210.818	9338.14
210.892	9448.56
210.966	9532.58
211.041	9640.11
211.115	9731.89
211.189	9849.64
211.263	9964.42
211.337	10065.37
211.411	10167.69
211.485	10250.84
211.559	10356.62
211.633	10450.7
211.707	10511.22
211.781	10615.15
211.855	10669.75
211.929	10759.55
212.003	10827.44
212.077	10922.61
212.151	11019.91
212.225	11113.06
212.299	11187.47
212.373	11266.31
212.447	11345.16
212.52	11460.1
212.594	11551.53
212.668	11645.75
212.742	11714.33
212.816	11786.15
212.89	11870.98
212.964	11950.75
213.038	12037.13
213.112	12127.89
213.186	12223.81
213.26	12280.45
213.333	12312.21
213.407	12389
213.481	12462.46
213.555	12560.4
213.629	12622.44
213.703	12683.81
213.777	12759.68
213.85	12818.11
213.924	12927.63
213.998	13000.52
214.072	13066.94
214.146	13124.07
214.219	13193.15
214.293	13264.69
214.367	13342.73
214.441	13417.5
214.515	13476.07
214.588	13519.17
214.662	13552.24
214.736	13603.48
214.81	13680.22
214.883	13756.73
214.957	13806.33
215.031	13857.48
215.105	13891.03
215.178	13939.91
215.252	13998.77
215.326	14036.95
215.4	14077.06
215.473	14087.33
215.547	14125.12
215.621	14162.77
215.694	14222.69
215.768	14258.02
215.842	14299.05
215.915	14337.47
215.989	14373.72
216.063	14423.08
216.136	14480.54
216.21	14533.22
216.284	14601.1
216.357	14652.29
216.431	14703.82
216.504	14774.49
216.578	14850.75
216.652	14916.64
216.725	14976.17
216.799	15028.95
216.873	15085.83
216.946	15146.91
217.02	15189.52
217.093	15239.8
217.167	15280.38
217.24	15308.19
217.314	15352.4
217.387	15387.87
217.461	15430.87
217.535	15487.31
217.608	15521.1
217.682	15563.81
217.755	15630.13
217.829	15658.57
217.902	15710
217.976	15762.44
218.049	15797.92
218.123	15837.63
218.196	15892.48
218.27	15933.6
218.343	15963.19
218.417	16002.04
218.49	16040.02
218.563	16099.59
218.637	16150.15
218.71	16217.2
218.784	16275.27
218.857	16343.33
218.931	16404.64
219.004	16455.49
219.077	16507.49
219.151	16556.89
219.224	16605.18
219.298	16643.26
219.371	16706.49
219.444	16739.36
219.518	16776.13
219.591	16825.44
219.665	16893.87
219.738	16939.8
219.811	16977.39
219.885	17038.17
219.958	17097.69
220.031	17156.1
220.105	17215.91
220.178	17269.45
220.251	17315.09
220.325	17374.37
220.398	17419.09
220.471	17468.97
220.544	17516.78
220.618	17557.31
220.691	17609.06
220.764	17657.55
220.838	17720.2
220.911	17762.46
220.984	17832.87
221.057	17892.05
221.131	17937.3
221.204	17949.88
221.277	18011.61
221.35	18085.78
221.424	18130.98
221.497	18175.03
221.57	18215.65
221.643	18264.32
221.716	18318.15
221.79	18346.15
221.863	18382.05
221.936	18417.37
222.009	18462
222.082	18510.09
222.155	18537.13
222.229	18593.51
222.302	18638.62
222.375	18661.22
222.448	18708.93
222.521	18731.82
222.594	18764.39
222.667	18789.5
222.74	18832.92
222.814	18856.05
222.887	18879.28
222.96	18917.3
223.033	18961.25
223.106	18991.56
223.179	19022.3
223.252	19047.7
223.325	19082.64
223.398	19107.55
223.471	19142.59
223.544	19165.52
223.617	19196.27
223.69	19234.58
223.763	19244.17
223.837	19267.73
223.91	19313.8
223.983	19314.91
224.056	19330.38
224.129	19352.84
224.202	19396.26
224.275	19415.92
224.348	19434.62
224.42	19445.41
224.493	19449.94
224.566	19461.51
224.639	19494.85
224.712	19512.59
224.785	19531.28
224.858	19548.58
224.931	19567.72
225.004	19578.66
225.077	19598.27
225.15	19589.84
225.223	19608.92
225.296	19655.86
225.369	19656
225.442	19646.03
225.514	19669.98
225.587	19695.57
225.66	19720.48
225.733	19729.97
225.806	19748.86
225.879	19759.61
225.952	19768.72
226.025	19796.48
226.097	19836.04
226.17	19855.17
226.243	19851.17
226.316	19863.8
226.389	19882.64
226.461	19899.65
226.534	19913.87
226.607	19929.82
226.68	19978.25
226.753	19992.13
226.825	19986.88
226.898	20019.65
226.971	20046.59
227.044	20064.27
227.117	20083.6
227.189	20099.5
227.262	20129.38
227.335	20146.2
227.407	20157.14
227.48	20180.99
227.553	20193.23
227.626	20189.57
227.698	20195.26
227.771	20217.43
227.844	20212.8
227.916	20212.08
227.989	20210.87
228.062	20218.87
228.134	20252.7
228.207	20240.03
228.28	20239.02
228.352	20240.37
228.425	20255.4
228.498	20265.23
228.57	20260.27
228.643	20270.53
228.716	20269.76
228.788	20265.91
228.861	20272.08
228.934	20290.49
229.006	20296.56
229.079	20299.93
229.151	20292.7
229.224	20275.64
229.296	20281.81
229.369	20319.11
229.442	20349.71
229.514	20339.74
229.587	20353.47
229.659	20331.74
229.732	20338.58
229.804	20358.87
229.877	20390.68
229.949	20392.56
230.022	20414.78
230.094	20417.47
230.167	20420.03
230.239	20402.05
230.312	20411.6
230.384	20442.44
230.457	20446.68
230.529	20442.1
230.602	20439.84
230.674	20446.73
230.747	20467.45
230.819	20469.81
230.892	20428.7
230.964	20435.36
231.037	20443.5
231.109	20431.74
231.181	20436.8
231.254	20433.81
231.326	20420.22
231.399	20396.7
231.471	20379.79
231.544	20346.05
231.616	20354.25
231.688	20351.16
231.761	20348.75
231.833	20325.47
231.905	20288.12
231.978	20286.05
232.05	20280.85
232.122	20271.93
232.195	20246.34
232.267	20245.62
232.339	20237.09
232.412	20254.87
232.484	20234.58
232.556	20227.79
232.629	20250.39
232.701	20253.71
232.773	20245.76
232.846	20233.19
232.918	20224.8
232.99	20223.59
233.062	20225.33
233.135	20222.39
233.207	20198.82
233.279	20204.41
233.351	20194.05
233.424	20177.52
233.496	20151.98
233.568	20158.01
233.64	20136.37
233.713	20139.98
233.785	20125.04
233.857	20113.72
233.929	20081
234.001	20084.56
234.074	20084.18
234.146	20040.13
234.218	20018.15
234.29	20001.91
234.362	19976.71
234.434	19947.99
234.507	19914.98
234.579	19875.41
234.651	19850.84
234.723	19841.05
234.795	19827.03
234.867	19809.73
234.939	19799.85
235.012	19777.97
235.084	19760.77
235.156	19752
235.228	19723.81
235.3	19700.91
235.372	19674.41
235.444	19663.95
235.516	19615.71
235.588	19603.38
235.66	19591.96
235.732	19562.08
235.804	19595.76
235.876	19591.14
235.948	19587.72
236.02	19580.73
236.092	19559.67
236.164	19528.49
236.236	19510.76
236.308	19483.24
236.38	19462.81
236.452	19434.71
236.524	19419.73
236.596	19415.92
236.668	19398.67
236.74	19370.19
236.812	19344.36
236.884	19330.09
236.956	19316.02
237.028	19282.72
237.1	19239.35
237.172	19229.38
237.244	19228.36
237.316	19155.69
237.388	19112.66
237.46	19069.34
237.532	19054.54
237.604	19026.59
237.675	19025.77
237.747	18996.71
237.819	18955.66
237.891	18940.91
237.963	18903.71
238.035	18860.67
238.107	18788.2
238.178	18783.52
238.25	18755.14
238.322	18754.08
238.394	18711.96
238.466	18675.67
238.538	18667.1
238.609	18648.25
238.681	18598.04
238.753	18554.96
238.825	18533.13
238.897	18518.04
238.968	18515.97
239.04	18465.18
239.112	18469.13
239.184	18423.78
239.255	18385.91
239.327	18368.03
239.399	18334.49
239.471	18320.22
239.542	18304.08
239.614	18294.35
239.686	18236.85
239.758	18221
239.829	18174.01
239.901	18161.2
239.973	18131.7
240.044	18094.31
240.116	18063.9
240.188	18033.06
240.259	18001.3
240.331	17967.18
240.403	17935.85
240.474	17888.1
240.546	17854.8
240.618	17798.7
240.689	17762.9
240.761	17740.34
240.833	17723.72
240.904	17687.28
240.976	17650.46
241.048	17619.14
241.119	17590.71
241.191	17564.15
241.262	17548.78
241.334	17509.12
241.405	17470.03
241.477	17435.04
241.549	17398.42
241.62	17368.88
241.692	17345.89
241.763	17323.57
241.835	17288.88
241.906	17259.67
241.978	17219.86
242.049	17204.2
242.121	17178.41
242.192	17160.15
242.264	17115.18
242.335	17067.13
242.407	17040.82
242.478	17007.42
242.55	16972.91
242.621	16936.77
242.693	16903.56
242.764	16864.72
242.836	16839.37
242.907	16813.01
242.979	16786.69
243.05	16761.15
243.122	16731.41
243.193	16701.63
243.264	16648.13
243.336	16618.44
243.407	16592.9
243.479	16575.21
243.55	16549.09
243.622	16532.17
243.693	16490.38
243.764	16479.83
243.836	16433.03
243.907	16397.6
243.978	16362.56
244.05	16349.5
244.121	16302.22
244.192	16278.7
244.264	16226.16
244.335	16188.57
244.407	16133.38
244.478	16100.8
244.549	16070.82
244.62	16027.92
244.692	15992.21
244.763	15967.14
244.834	15923.62
244.906	15891.52
244.977	15857.54
245.048	15840.09
245.119	15793
245.191	15758.97
245.262	15708.55
245.333	15703.01
245.405	15673.32
245.476	15649.32
245.547	15613.65
245.618	15589.4
245.689	15562.03
245.761	15543.28
245.832	15518.84
245.903	15504.04
245.974	15475.89
246.045	15438.63
246.117	15417.18
246.188	15373.89
246.259	15339.14
246.33	15312.1
246.401	15272
246.473	15228.42
246.544	15182.24
246.615	15163.98
246.686	15130.86
246.757	15111.82
246.828	15064.53
246.899	15047.71
246.97	15000.52
247.042	14955.25
247.113	14937.9
247.184	14925.85
247.255	14885.07
247.326	14849.64
247.397	14819.27
247.468	14790.4
247.539	14756.99
247.61	14716.31
247.681	14695.63
247.752	14675.09
247.823	14636.34
247.894	14612.57
247.965	14576.71
248.037	14542.1
248.108	14496.25
248.179	14460.05
248.25	14422.89
248.321	14405.29
248.392	14366.44
248.463	14361.47
248.534	14334.09
248.605	14306.13
248.675	14266.94
248.746	14242.94
248.817	14214.11
248.888	14189.33
248.959	14146.19
249.03	14136.5
249.101	14118.9
249.172	14083.28
249.243	14035.94
249.314	14025.19
249.385	14009.43
249.456	13989.28
249.527	13962.47
249.598	13943.24
249.669	13925.26
249.739	13906.75
249.81	13877.87
249.881	13835.84
249.952	13806.77
250.023	13783
250.094	13744.48
250.165	13705.87
250.235	13685.62
250.306	13667.98
250.377	13626.96
250.448	13597.07
250.519	13546.69
250.59	13525.72
250.66	13499.02
250.731	13489.23
250.802	13465.61
250.873	13427.19
250.944	13407.95
251.014	13373.97
251.085	13369.2
251.156	13346.64
251.227	13335.02
251.297	13325.81
251.368	13313.52
251.439	13305.13
251.51	13294.86
251.58	13260.01
251.651	13234.99
251.722	13223.42
251.792	13175.16
251.863	13165.14
251.934	13167.21
252.005	13168.61
252.075	13152.89
252.146	13138.87
252.217	13129.61
252.287	13110.57
252.358	13087.82
252.429	13078.41
252.499	13056.96
252.57	13036.28
252.641	13023.89
252.711	12996.51
252.782	12956.16
252.852	12955.83
252.923	12923.77
252.994	12900.73
253.064	12889.3
253.135	12858.6
253.205	12823.98
253.276	12825.77
253.347	12811.35
253.417	12778.09
253.488	12757.22
253.558	12727.62
253.629	12707.66
253.699	12690.17
253.77	12673.73
253.841	12655.22
253.911	12634.25
253.982	12616.03
254.052	12599.49
254.123	12582.91
254.193	12556.44
254.264	12578.28
254.334	12541.65
254.405	12505.11
254.475	12470.59
254.546	12449.77
254.616	12442.1
254.687	12424.56
254.757	12408.51
254.827	12390.96
254.898	12373.22
254.968	12347.29
255.039	12315.09
255.109	12298.65
255.18	12268.57
255.25	12225.09
255.321	12208.37
255.391	12175.11
255.461	12173.28
255.532	12126.95
255.602	12095.96
255.673	12062.94
255.743	12026.69
255.813	11987.22
255.884	11985.96
255.954	11976.9
256.024	11976.51
256.095	11956.08
256.165	11926.67
256.235	11911.54
256.306	11871.63
256.376	11866.95
256.446	11856.21
256.517	11848.16
256.587	11839.67
256.657	11814.42
256.728	11800.25
256.798	11777.45
256.868	11753.11
256.938	11724.24
257.009	11716.76
257.079	11709.73
257.149	11720.24
257.219	11681.29
257.29	11672.04
257.36	11632.47
257.43	11623.89
257.5	11580.94
257.571	11546.53
257.641	11531.59
257.711	11500.26
257.781	11492.21
257.852	11481.51
257.922	11443.68
257.992	11422.86
258.062	11407.05
258.132	11403.14
258.202	11380.35
258.273	11365.55
258.343	11370.23
258.413	11342.04
258.483	11326.71
258.553	11295.04
258.623	11263.14
258.693	11249.79
258.764	11243.81
258.834	11236.92
258.904	11213.26
258.974	11190.56
259.044	11180.78
259.114	11171.81
259.184	11161.02
259.254	11145.41
259.324	11106.61
259.394	11097.84
259.464	11097.5
259.535	11073.21
259.605	11043.77
259.675	11027.86
259.745	11013.36
259.815	10981.22
259.885	10961.8
259.955	10965.12
260.025	10942.18
260.095	10924.4
260.165	10920.16
260.235	10919.39
260.305	10899.92
260.375	10875.93
260.445	10882.24
260.515	10883.68
260.585	10886.19
260.655	10865.56
260.725	10857.52
260.795	10843.69
260.865	10852.6
260.934	10828.32
261.004	10820.36
261.074	10805.43
261.144	10803.21
261.214	10795.55
261.284	10777
261.354	10767.36
261.424	10740.42
261.494	10739.51
261.564	10720.67
261.634	10708.91
261.703	10673.98
261.773	10664.05
261.843	10659.04
261.913	10641.16
261.983	10606.47
262.053	10587.58
