Data from 20250703_urea_0.1M_MAYP1162681_18-31-05-604.txt Node
Date: Thu Jul 03 18:31:05 BST 2025
User: adleo
Spectrometer: MAYP116268
Trigger mode: 0
Integration Time (sec): 1.000000E0
Scans to average: 1
Electric dark correction enabled: true
Nonlinearity correction enabled: true
Boxcar width: 10
XAxis mode: Wavelengths
Number of Pixels in Spectrum: 2068
>>>>>Begin Spectral Data<<<<<
179.565	1354.06
179.642	1416.36
179.718	1464.47
179.795	1510.92
179.871	1547.24
179.948	1570.41
180.024	1597.79
180.101	1623.56
180.177	1641.05
180.254	1666.33
180.33	1689.83
180.407	1753.47
180.483	1863.6
180.56	1964.67
180.636	2059.26
180.712	2046.17
180.789	2056.87
180.865	2072.94
180.942	2080.98
181.018	2089.54
181.095	2105.05
181.171	2109.29
181.248	2112.42
181.324	2130.41
181.4	2138.17
181.477	2152.11
181.553	2164.19
181.63	2184.32
181.706	2203.83
181.782	2211.2
181.859	2211.91
181.935	2220.43
182.011	2217.72
182.088	2232.95
182.164	2254.13
182.24	2267.88
182.317	2278.2
182.393	2276.58
182.469	2291.52
182.546	2309.04
182.622	2315.6
182.698	2310.65
182.775	2321.74
182.851	2337.97
182.927	2330.69
183.003	2324.98
183.08	2316.94
183.156	2327.93
183.232	2320.7
183.308	2305.32
183.385	2311.6
183.461	2330.45
183.537	2330.55
183.613	2345.78
183.69	2335.02
183.766	2326.02
183.842	2335.16
183.918	2341.16
183.995	2358.01
184.071	2362.86
184.147	2354.72
184.223	2343.5
184.299	2357.63
184.375	2345.5
184.452	2351.79
184.528	2404.88
184.604	2415.11
184.68	2427.01
184.756	2434.43
184.832	2443.67
184.908	2449.62
184.985	2452.52
185.061	2430.29
185.137	2439.91
185.213	2429.72
185.289	2431.58
185.365	2424.58
185.441	2422.53
185.517	2432.58
185.593	2428.82
185.669	2424.49
185.745	2437.1
185.822	2452.05
185.898	2441.62
185.974	2454.37
186.05	2444.23
186.126	2407.28
186.202	2399.38
186.278	2397.9
186.354	2386.95
186.43	2392.38
186.506	2394.1
186.582	2393.19
186.658	2404.42
186.734	2382.34
186.81	2382.48
186.886	2384.48
186.962	2395.86
187.038	2392.81
187.114	2387.19
187.19	2392.81
187.266	2382.72
187.341	2381.1
187.417	2375.29
187.493	2377.86
187.569	2379.58
187.645	2375.67
187.721	2362.72
187.797	2372.57
187.873	2373.76
187.949	2368.34
188.025	2362.05
188.101	2362.72
188.176	2370.43
188.252	2368.19
188.328	2377.04
188.404	2375.47
188.48	2374.19
188.556	2365.67
188.632	2364.09
188.707	2366.86
188.783	2363.86
188.859	2358.29
188.935	2346.44
189.011	2355.81
189.086	2347.82
189.162	2338.63
189.238	2332.78
189.314	2331.97
189.39	2322.69
189.465	2318.02
189.541	2335.35
189.617	2319.6
189.693	2313.41
189.768	2313.46
189.844	2339.7
189.92	2330
189.996	2344.18
190.071	2355.89
190.147	2356.13
190.223	2367.75
190.298	2359.03
190.374	2345.94
190.45	2357.89
190.526	2368.03
190.601	2360.22
190.677	2362.03
190.753	2394.94
190.828	2398.94
190.904	2415.18
190.98	2436.22
191.055	2445.31
191.131	2437.27
191.207	2461.02
191.282	2474.3
191.358	2467.59
191.433	2451.11
191.509	2467.47
191.585	2461.28
191.66	2460.43
191.736	2467.81
191.811	2458.24
191.887	2475.71
191.963	2501.9
192.038	2509.9
192.114	2510.47
192.189	2515.09
192.265	2509.9
192.34	2482.99
192.416	2483.56
192.491	2477.7
192.567	2478.51
192.642	2483.32
192.718	2482.79
192.793	2468.18
192.869	2458.23
192.944	2460.46
193.02	2467.42
193.095	2469.32
193.171	2474.56
193.246	2474.85
193.322	2472.61
193.397	2473.04
193.473	2457.6
193.548	2435.94
193.624	2443.13
193.699	2441.13
193.775	2461.94
193.85	2467.32
193.925	2477.13
194.001	2475.04
194.076	2466.51
194.152	2456.42
194.227	2448.85
194.302	2437.66
194.378	2440.95
194.453	2443.37
194.529	2456.71
194.604	2440.66
194.679	2434.95
194.755	2416.43
194.83	2430.01
194.905	2427.92
194.981	2438.82
195.056	2430.3
195.131	2439.16
195.207	2436.92
195.282	2428.35
195.357	2403.06
195.433	2418.05
195.508	2406.25
195.583	2416.2
195.659	2430.05
195.734	2437.81
195.809	2436.43
195.884	2446.76
195.96	2447.81
196.035	2463.62
196.11	2456.61
196.185	2471.42
196.261	2478.04
196.336	2509.18
196.411	2491.84
196.486	2498.03
196.561	2490.74
196.637	2502.55
196.712	2519.65
196.787	2521.79
196.862	2538.46
196.937	2550.74
197.013	2558.46
197.088	2570.12
197.163	2592.8
197.238	2612.44
197.313	2611.1
197.388	2626.11
197.464	2657.36
197.539	2667.89
197.614	2658.36
197.689	2673.41
197.764	2692.62
197.839	2712.91
197.914	2707.48
197.989	2734.21
198.065	2749.41
198.14	2803
198.215	2831.31
198.29	2844.75
198.365	2862.91
198.44	2872.3
198.515	2904
198.59	2920.73
198.665	2948.66
198.74	2957.58
198.815	2962.2
198.89	2988.28
198.965	3023.28
199.04	3022.09
199.115	3040.73
199.19	3089.11
199.265	3092.26
199.34	3100.51
199.415	3137.96
199.49	3160.51
199.565	3170
199.64	3192.51
199.715	3189.89
199.79	3197.37
199.865	3204.48
199.94	3200.29
200.015	3236.88
200.09	3244.22
200.165	3253.14
200.24	3258.92
200.315	3303.61
200.39	3317.93
200.464	3327.23
200.539	3327.09
200.614	3347.55
200.689	3372.89
200.764	3377.81
200.839	3399.98
200.914	3407.19
200.989	3395.35
201.063	3411.24
201.138	3395.12
201.213	3400.32
201.288	3384
201.363	3391.21
201.438	3390.25
201.512	3407.8
201.587	3389.38
201.662	3391.19
201.737	3402.51
201.812	3414.92
201.886	3378.14
201.961	3391.22
202.036	3375.82
202.111	3374.34
202.186	3342.05
202.26	3327.97
202.335	3305.02
202.41	3299.01
202.485	3282.03
202.559	3263.61
202.634	3238.28
202.709	3249.77
202.784	3230.78
202.858	3229.78
202.933	3213.89
203.008	3213.32
203.082	3193.1
203.157	3197.25
203.232	3156.72
203.306	3145.37
203.381	3118.74
203.456	3104.38
203.53	3086.96
203.605	3076.85
203.68	3060.82
203.754	3068.3
203.829	3064.92
203.904	3063.63
203.978	3067.68
204.053	3090.44
204.127	3095.49
204.202	3113.62
204.277	3114.33
204.351	3129.88
204.426	3147.3
204.5	3162.71
204.575	3152.03
204.65	3194.5
204.724	3220.62
204.799	3268.16
204.873	3295.28
204.948	3333.03
205.022	3362.62
205.097	3401.69
205.171	3461.59
205.246	3518.09
205.32	3563.05
205.395	3616.88
205.469	3659.99
205.544	3724.07
205.618	3765.79
205.693	3843.83
205.767	3899.78
205.842	3992.75
205.916	4059.67
205.991	4126.56
206.065	4213.46
206.14	4313.83
206.214	4400.13
206.289	4479.77
206.363	4583.14
206.438	4680.86
206.512	4788.31
206.586	4910.93
206.661	5023.02
206.735	5110.8
206.81	5222.72
206.884	5357.06
206.958	5458.13
207.033	5600.09
207.107	5726.44
207.181	5879.4
207.256	5997.85
207.33	6145.95
207.405	6291.67
207.479	6441.27
207.553	6582.92
207.628	6698.8
207.702	6850.26
207.776	6976.07
207.851	7119.91
207.925	7276.92
207.999	7415.29
208.073	7563.12
208.148	7709.72
208.222	7838.9
208.296	8016.8
208.371	8189.62
208.445	8352.04
208.519	8532.88
208.593	8694.19
208.668	8848.31
208.742	9010.5
208.816	9170.69
208.89	9342.01
208.965	9499.15
209.039	9672.57
209.113	9853.41
209.187	10040.1
209.261	10186.47
209.336	10371.24
209.41	10559.18
209.484	10723.62
209.558	10911
209.632	11078.34
209.707	11249.99
209.781	11440.23
209.855	11627.51
209.929	11800.4
210.003	11968.8
210.077	12129.93
210.151	12347.74
210.226	12547.35
210.3	12736.54
210.374	12920.19
210.448	13076.61
210.522	13242.82
210.596	13405.51
210.67	13562.08
210.744	13767.04
210.818	13957.64
210.892	14137.63
210.966	14279.12
211.041	14443.35
211.115	14593.07
211.189	14774.03
211.263	14941.2
211.337	15094.77
211.411	15249.98
211.485	15380.13
211.559	15534.42
211.633	15683.95
211.707	15781.26
211.781	15926.77
211.855	16028.95
211.929	16154.22
212.003	16281.9
212.077	16431.41
212.151	16575.81
212.225	16722.37
212.299	16840.79
212.373	16961.71
212.447	17074.77
212.52	17240.47
212.594	17373.62
212.668	17514.25
212.742	17617.87
212.816	17730.11
212.89	17843.6
212.964	17959.36
213.038	18089.38
213.112	18221.03
213.186	18355.73
213.26	18447.39
213.333	18509.07
213.407	18632.44
213.481	18754.36
213.555	18877.64
213.629	18970.31
213.703	19058.54
213.777	19167.79
213.85	19261.33
213.924	19404.45
213.998	19513.12
214.072	19596.98
214.146	19679.09
214.219	19771.76
214.293	19867.04
214.367	19971.13
214.441	20070.98
214.515	20156.96
214.588	20227.8
214.662	20282.11
214.736	20346.35
214.81	20450.4
214.883	20546.3
214.957	20611.65
215.031	20664.08
215.105	20722.06
215.178	20791.7
215.252	20861.24
215.326	20914.5
215.4	20963.95
215.473	20991.47
215.547	21047.57
215.621	21106.95
215.694	21187.25
215.768	21227.11
215.842	21275.64
215.915	21326.06
215.989	21366.79
216.063	21416.15
216.136	21474.08
216.21	21531.39
216.284	21593.23
216.357	21657.34
216.431	21714.65
216.504	21789.17
216.578	21885.29
216.652	21949.98
216.725	22008.64
216.799	22084.76
216.873	22143.23
216.946	22197.27
217.02	22245.14
217.093	22292.48
217.167	22317.64
217.24	22348.4
217.314	22404.46
217.387	22448.86
217.461	22485.6
217.535	22556.13
217.608	22591.71
217.682	22640.59
217.755	22705.2
217.829	22741.31
217.902	22787.4
217.976	22835.18
218.049	22864.74
218.123	22898.35
218.196	22943.04
218.27	22972.79
218.343	23001.87
218.417	23039.96
218.49	23091.02
218.563	23142.32
218.637	23192.76
218.71	23264.9
218.784	23313.99
218.857	23360.09
218.931	23415.01
219.004	23463.81
219.077	23499.4
219.151	23551.09
219.224	23585.62
219.298	23613.21
219.371	23679.38
219.444	23702.04
219.518	23728.66
219.591	23763.62
219.665	23808.82
219.738	23853.77
219.811	23881.59
219.885	23922.11
219.958	23962.38
220.031	23986.93
220.105	24026
220.178	24061.45
220.251	24082.77
220.325	24131.15
220.398	24168
220.471	24196.46
220.544	24232.4
220.618	24253.86
220.691	24278.61
220.764	24314.69
220.838	24353.13
220.911	24357.38
220.984	24404.65
221.057	24444.69
221.131	24472.43
221.204	24465.67
221.277	24495.05
221.35	24555.74
221.424	24572
221.497	24598.58
221.57	24617.83
221.643	24650.1
221.716	24685.33
221.79	24698.21
221.863	24701.68
221.936	24712.44
222.009	24724.93
222.082	24741.96
222.155	24745.05
222.229	24771.73
222.302	24787.46
222.375	24800.68
222.448	24827.46
222.521	24831.37
222.594	24837.16
222.667	24834.74
222.74	24853.03
222.814	24862.58
222.887	24862.1
222.96	24882.27
223.033	24902.63
223.106	24924.24
223.179	24929.17
223.252	24918.26
223.325	24921.78
223.398	24923.86
223.471	24936.01
223.544	24951.55
223.617	24951.31
223.69	24970.46
223.763	24960.86
223.837	24969.11
223.91	24973.94
223.983	24957.48
224.056	24932.3
224.129	24937.03
224.202	24949.81
224.275	24959.37
224.348	24947.98
224.42	24925.4
224.493	24910.06
224.566	24878.64
224.639	24875.75
224.712	24864.26
224.785	24862.87
224.858	24862.14
224.931	24854.23
225.004	24817.23
225.077	24798.41
225.15	24767.34
225.223	24762.03
225.296	24784.18
225.369	24752.05
225.442	24730.19
225.514	24726.09
225.587	24734.73
225.66	24731.25
225.733	24728.5
225.806	24724.31
225.879	24717.74
225.952	24697.82
226.025	24697.92
226.097	24714.61
226.17	24697.19
226.243	24662.6
226.316	24639.45
226.389	24631.05
226.461	24623.28
226.534	24633.9
226.607	24615.85
226.68	24631.77
226.753	24606.64
226.825	24565.72
226.898	24570.6
226.971	24556.27
227.044	24553.18
227.117	24547.01
227.189	24534.99
227.262	24518.98
227.335	24503.25
227.407	24474.36
227.48	24466.88
227.553	24447.15
227.626	24419.89
227.698	24411.4
227.771	24401.08
227.844	24373.19
227.916	24344.98
227.989	24311.55
228.062	24279.62
228.134	24291.72
228.207	24275.76
228.28	24258.87
228.352	24243.49
228.425	24228.44
228.498	24225.16
228.57	24182.37
228.643	24175.04
228.716	24142.05
228.788	24121.5
228.861	24087.35
228.934	24083.73
229.006	24068.2
229.079	24038.59
229.151	24003.81
229.224	23953.84
229.296	23930.6
229.369	23939.71
229.442	23940.34
229.514	23909.81
229.587	23908.99
229.659	23862.79
229.732	23844.6
229.804	23842.19
229.877	23843.45
229.949	23832.69
230.022	23822.71
230.094	23809.59
230.167	23784.51
230.239	23755.04
230.312	23730.83
230.384	23739.42
230.457	23719.74
230.529	23695.1
230.602	23677.21
230.674	23661.2
230.747	23664.43
230.819	23665.54
230.892	23618.9
230.964	23603.23
231.037	23606.46
231.109	23584.95
231.181	23574.39
231.254	23539.28
231.326	23510.06
231.399	23467.95
231.471	23431.69
231.544	23384.38
231.616	23367.45
231.688	23345.27
231.761	23317.74
231.833	23288.95
231.905	23227.81
231.978	23202.35
232.05	23175.44
232.122	23157.36
232.195	23138.7
232.267	23124.72
232.339	23090.82
232.412	23076.55
232.484	23033.44
232.556	22983.83
232.629	22983.2
232.701	22967.09
232.773	22936.14
232.846	22894.87
232.918	22877.94
232.99	22843.81
233.062	22832.43
233.135	22814.69
233.207	22771.78
233.279	22771.25
233.351	22748.44
233.424	22725.78
233.496	22683.41
233.568	22676.46
233.64	22629.7
233.713	22592.43
233.785	22551.5
233.857	22521.71
233.929	22472.63
234.001	22461.16
234.074	22456.58
234.146	22398.91
234.218	22364.88
234.29	22334.94
234.362	22294.21
234.434	22237.66
234.507	22197.84
234.579	22137.68
234.651	22091.4
234.723	22059.35
234.795	22019.91
234.867	21984
234.939	21973.88
235.012	21945.54
235.084	21919.7
235.156	21900.75
235.228	21865.85
235.3	21831
235.372	21798.9
235.444	21776.1
235.516	21720.76
235.588	21688.9
235.66	21651.69
235.732	21597.37
235.804	21621.23
235.876	21605.8
235.948	21595.97
236.02	21570.14
236.092	21537.94
236.164	21502.32
236.236	21463.62
236.308	21413.83
236.38	21388.33
236.452	21339.7
236.524	21311.31
236.596	21291.6
236.668	21262.87
236.74	21227.78
236.812	21197.66
236.884	21167.49
236.956	21139.2
237.028	21087.19
237.1	21033.21
237.172	21016.15
237.244	21010.51
237.316	20930.36
237.388	20886.16
237.46	20834.16
237.532	20800.04
237.604	20759.99
237.675	20740.52
237.747	20712.86
237.819	20680.33
237.891	20634.01
237.963	20590.01
238.035	20544.52
238.107	20458.73
238.178	20440.18
238.25	20401.04
238.322	20385.33
238.394	20331.5
238.466	20287.65
238.538	20267.26
238.609	20238.2
238.681	20169.53
238.753	20113.33
238.825	20081.96
238.897	20046.16
238.968	20042.11
239.04	20004.42
239.112	19996.13
239.184	19943.27
239.255	19898.93
239.327	19861.01
239.399	19829.63
239.471	19795.9
239.542	19766.89
239.614	19743.32
239.686	19668.77
239.758	19645.88
239.829	19591.43
239.901	19573.55
239.973	19540.97
240.044	19511.96
240.116	19472.06
240.188	19443.68
240.259	19412.5
240.331	19366.38
240.403	19340.6
240.474	19275.3
240.546	19227.35
240.618	19162.39
240.689	19131.31
240.761	19104.8
240.833	19088.23
240.904	19048.04
240.976	19019.36
241.048	18984.76
241.119	18970.64
241.191	18946.79
241.262	18926.69
241.334	18880.58
241.405	18836.15
241.477	18789.06
241.549	18748.1
241.62	18713.31
241.692	18678.57
241.763	18650.52
241.835	18606.62
241.906	18567.87
241.978	18518.91
242.049	18505.23
242.121	18486.29
242.192	18455.06
242.264	18396.03
242.335	18335.16
242.407	18318.01
242.478	18267.26
242.55	18231.65
242.621	18172.09
242.693	18126.59
242.764	18081.44
242.836	18049.83
242.907	18021.88
242.979	17987.85
243.05	17950.84
243.122	17929.54
243.193	17896.58
243.264	17834.84
243.336	17805.3
243.407	17780.82
243.479	17771.67
243.55	17733.98
243.622	17702.37
243.693	17663.23
243.764	17655.91
243.836	17616.44
243.907	17564.1
243.978	17525.45
244.05	17487.38
244.121	17436.2
244.192	17410.56
244.264	17352.78
244.335	17313.93
244.407	17255.28
244.478	17229.59
244.549	17194.65
244.62	17139.57
244.692	17102.46
244.763	17075.57
244.834	17033.54
244.906	16980.34
244.977	16936.48
245.048	16914.7
245.119	16864.57
245.191	16830.6
245.262	16763.8
245.333	16748.9
245.405	16715.89
245.476	16695.12
245.547	16668.51
245.618	16650.54
245.689	16622.1
245.761	16590.1
245.832	16555.16
245.903	16534.1
245.974	16497.42
246.045	16456.64
246.117	16445.8
246.188	16394.32
246.259	16353.45
246.33	16320.53
246.401	16291.23
246.473	16246.89
246.544	16195.56
246.615	16175.46
246.686	16133.62
246.757	16125.48
246.828	16075.98
246.899	16061.81
246.97	16012.5
247.042	15970.57
247.113	15940.15
247.184	15927.28
247.255	15897.5
247.326	15874.51
247.397	15844.67
247.468	15823.56
247.539	15797.15
247.61	15742.92
247.681	15726.92
247.752	15710.72
247.823	15668.45
247.894	15642.33
247.965	15602.42
248.037	15574.27
248.108	15528.09
248.179	15494.93
248.25	15469.19
248.321	15448.36
248.392	15403.1
248.463	15394.81
248.534	15361.02
248.605	15343.33
248.675	15306.99
248.746	15280.91
248.817	15253.49
248.888	15224.86
248.959	15172.41
249.03	15144.12
249.101	15116.11
249.172	15082.7
249.243	15030.84
249.314	15027.99
249.385	14993
249.456	14971.07
249.527	14944.7
249.598	14923.97
249.669	14899.77
249.739	14867.48
249.81	14844.92
249.881	14798.64
249.952	14773.48
250.023	14742.39
250.094	14695.77
250.165	14653.21
250.235	14623.47
250.306	14593.05
250.377	14550.82
250.448	14530.91
250.519	14487.48
250.59	14480.4
250.66	14445.45
250.731	14439.81
250.802	14396.57
250.873	14371.07
250.944	14347.35
251.014	14307.92
251.085	14306.62
251.156	14283.96
251.227	14268.58
251.297	14248.67
251.368	14237.1
251.439	14221.1
251.51	14216.91
251.58	14180.61
251.651	14152.65
251.722	14136.83
251.792	14087.86
251.863	14063.85
251.934	14053.05
252.005	14057.39
252.075	14032.81
252.146	14019.89
252.217	14001.95
252.287	13995.21
252.358	13977.56
252.429	13979.15
252.499	13952.35
252.57	13929.16
252.641	13914.22
252.711	13882.84
252.782	13842.29
252.852	13840.9
252.923	13808.07
252.994	13779.96
253.064	13774.47
253.135	13740.72
253.205	13710.02
253.276	13718.36
253.347	13718.6
253.417	13688.61
253.488	13657.91
253.558	13625.27
253.629	13605.79
253.699	13584.39
253.77	13563.81
253.841	13529
253.911	13504.46
253.982	13486.96
254.052	13468.94
254.123	13445.8
254.193	13433.84
254.264	13456.45
254.334	13423.81
254.405	13390.74
254.475	13355.46
254.546	13333.57
254.616	13329.04
254.687	13318.48
254.757	13299.44
254.827	13267.77
254.898	13253.16
254.968	13228.96
255.039	13194.69
255.109	13179.89
255.18	13149.28
255.25	13102.66
255.321	13092.3
255.391	13054.22
255.461	13049.15
255.532	12998.73
255.602	12970.29
255.673	12922.13
255.743	12888.58
255.813	12835.84
255.884	12821.48
255.954	12814.73
256.024	12807.84
256.095	12783.3
256.165	12743.96
256.235	12726.03
256.306	12700.53
256.376	12685.73
256.446	12680.19
256.517	12670.74
256.587	12669.29
256.657	12655.7
256.728	12647.46
256.798	12626.39
256.868	12601.32
256.938	12572.26
257.009	12568.4
257.079	12556.25
257.149	12556.49
257.219	12510.27
257.29	12504.34
257.36	12471.8
257.43	12457.53
257.5	12414.2
257.571	12384.36
257.641	12374.91
257.711	12341.12
257.781	12326.85
257.852	12313.69
257.922	12265.63
257.992	12246.59
258.062	12215.11
258.132	12197.91
258.202	12176.21
258.273	12153.17
258.343	12152.74
258.413	12129.65
258.483	12103.43
258.553	12074.89
258.623	12052.86
258.693	12040.38
258.764	12038.11
258.834	12034.4
258.904	12012.13
258.974	11987.41
259.044	11976.08
259.114	11964.99
259.184	11950.73
259.254	11932.51
259.324	11890.33
259.394	11884.5
259.464	11881.37
259.535	11854.81
259.605	11832.2
259.675	11803.72
259.745	11794.61
259.815	11763.81
259.885	11738.36
259.955	11754.12
260.025	11729.97
260.095	11710.98
260.165	11698.16
260.235	11698.06
260.305	11671.07
260.375	11645.48
260.445	11649.1
260.515	11643.5
260.585	11639.89
260.655	11617.19
260.725	11608.03
260.795	11598.49
260.865	11601.43
260.934	11576.27
261.004	11568.03
261.074	11550.87
261.144	11552.07
261.214	11548.65
261.284	11526.87
261.354	11526.34
261.424	11491.34
261.494	11491.58
261.564	11474.86
261.634	11467.77
261.703	11426.33
261.773	11416.3
261.843	11404.25
261.913	11385.65
261.983	11345.17
