Data from 20250703_urea_0.1M_MAYP1162681_00-21-04-945.txt Node
Date: Fri Jul 04 00:21:04 BST 2025
User: adleo
Spectrometer: MAYP116268
Trigger mode: 0
Integration Time (sec): 1.000000E0
Scans to average: 1
Electric dark correction enabled: true
Nonlinearity correction enabled: true
Boxcar width: 10
XAxis mode: Wavelengths
Number of Pixels in Spectrum: 2068
>>>>>Begin Spectral Data<<<<<
179.565	1359.03
179.642	1416.45
179.718	1464.19
179.795	1508.76
179.871	1544.45
179.948	1563.76
180.024	1587.2
180.101	1612.36
180.177	1629.14
180.254	1657.28
180.33	1682.13
180.407	1747.24
180.483	1852.53
180.56	1955.35
180.636	2052.27
180.712	2037.57
180.789	2047.03
180.865	2061.48
180.942	2072.14
181.018	2084.27
181.095	2096.78
181.171	2101.35
181.248	2104.87
181.324	2122.28
181.4	2132.61
181.477	2147.83
181.553	2165.19
181.63	2189.27
181.706	2208.39
181.782	2218.52
181.859	2213.1
181.935	2219.71
182.011	2216
182.088	2234.13
182.164	2254.79
182.24	2266.78
182.317	2277.82
182.393	2275.54
182.469	2290.67
182.546	2306.61
182.622	2311.8
182.698	2306.42
182.775	2321.03
182.851	2338.31
182.927	2331.79
183.003	2324.89
183.08	2319.65
183.156	2327.08
183.232	2322.75
183.308	2308.71
183.385	2317.75
183.461	2340.78
183.537	2341.73
183.613	2354.58
183.69	2346.68
183.766	2336.54
183.842	2345.68
183.918	2350.53
183.995	2367.48
184.071	2370.9
184.147	2362.81
184.223	2347.83
184.299	2364.2
184.375	2349.5
184.452	2355.93
184.528	2408.87
184.604	2417.87
184.68	2425.24
184.756	2435.34
184.832	2440.24
184.908	2446.62
184.985	2446.47
185.061	2427.39
185.137	2437.34
185.213	2429.1
185.289	2429.53
185.365	2419.87
185.441	2420.96
185.517	2434.78
185.593	2429.92
185.669	2427.16
185.745	2438.35
185.822	2457.76
185.898	2449.14
185.974	2459.56
186.05	2450.8
186.126	2414.99
186.202	2408.57
186.278	2406.05
186.354	2395.67
186.43	2401.67
186.506	2399.29
186.582	2398.14
186.658	2408.38
186.734	2387.01
186.81	2387.34
186.886	2391.76
186.962	2404.28
187.038	2398.28
187.114	2389.81
187.19	2398.23
187.266	2388.81
187.341	2388.81
187.417	2380.77
187.493	2378.72
187.569	2381.81
187.645	2376.91
187.721	2362.01
187.797	2371.24
187.873	2374.72
187.949	2365.58
188.025	2359.77
188.101	2365.81
188.176	2371.91
188.252	2364.67
188.328	2373.38
188.404	2371.9
188.48	2366.38
188.556	2359.1
188.632	2361.38
188.707	2360.76
188.783	2357.34
188.859	2352.48
188.935	2339.06
189.011	2348.2
189.086	2342.72
189.162	2333.49
189.238	2327.88
189.314	2327.45
189.39	2322.64
189.465	2319.16
189.541	2339.63
189.617	2324.31
189.693	2317.93
189.768	2321.98
189.844	2349.31
189.92	2338.51
189.996	2349.7
190.071	2362.6
190.147	2363.74
190.223	2372.5
190.298	2366.41
190.374	2353.32
190.45	2365.12
190.526	2377.12
190.601	2369.26
190.677	2369.26
190.753	2400.74
190.828	2404.08
190.904	2417.12
190.98	2430.4
191.055	2441.02
191.131	2432.4
191.207	2456.06
191.282	2466.06
191.358	2454.54
191.433	2438.29
191.509	2454.42
191.585	2449.47
191.66	2452.76
191.736	2457.33
191.811	2444.95
191.887	2463
191.963	2488.52
192.038	2495.52
192.114	2495.76
192.189	2503.18
192.265	2501.52
192.34	2477.51
192.416	2479.32
192.491	2474.55
192.567	2480.6
192.642	2480.37
192.718	2478.75
192.793	2462.61
192.869	2456.42
192.944	2461.37
193.02	2467.37
193.095	2471.7
193.171	2481.84
193.246	2478.13
193.322	2475.98
193.397	2477.56
193.473	2463.41
193.548	2440.74
193.624	2447.89
193.699	2447.36
193.775	2461.22
193.85	2461.94
193.925	2469.51
194.001	2464.99
194.076	2458.47
194.152	2445.84
194.227	2439.75
194.302	2429.42
194.378	2433.85
194.453	2430.19
194.529	2441.09
194.604	2430.04
194.679	2423.05
194.755	2401.67
194.83	2411.58
194.905	2409.91
194.981	2420.53
195.056	2412.01
195.131	2420.86
195.207	2417.58
195.282	2404.54
195.357	2386.87
195.433	2403.43
195.508	2392.2
195.583	2406.72
195.659	2425.05
195.734	2433.24
195.809	2431.96
195.884	2439.43
195.96	2438.86
196.035	2457.95
196.11	2452.14
196.185	2464.85
196.261	2471.99
196.336	2504.7
196.411	2492.18
196.486	2499.18
196.561	2491.65
196.637	2499.89
196.712	2518.65
196.787	2523.7
196.862	2543.18
196.937	2553.08
197.013	2560.94
197.088	2573.99
197.163	2594.05
197.238	2609.73
197.313	2608.68
197.388	2627.07
197.464	2664.09
197.539	2678.04
197.614	2670.8
197.689	2687.76
197.764	2704.44
197.839	2722.49
197.914	2715.73
197.989	2739.36
198.065	2757.13
198.14	2810.67
198.215	2838.69
198.29	2851.13
198.365	2863.76
198.44	2875.2
198.515	2908.52
198.59	2924.2
198.665	2951.85
198.74	2959.95
198.815	2963.44
198.89	2992.61
198.965	3022.42
199.04	3017.74
199.115	3034.33
199.19	3080.62
199.265	3083.29
199.34	3091.11
199.415	3129.66
199.49	3152.59
199.565	3162.7
199.64	3184.64
199.715	3184.73
199.79	3196.28
199.865	3203
199.94	3201.05
200.015	3235.88
200.09	3238.93
200.165	3243.98
200.24	3249.85
200.315	3297.37
200.39	3314.11
200.464	3318.79
200.539	3319.31
200.614	3336.49
200.689	3362.35
200.764	3368.7
200.839	3388.25
200.914	3396.6
200.989	3384.04
201.063	3401.8
201.138	3386.54
201.213	3391.6
201.288	3368.03
201.363	3372.99
201.438	3374.85
201.512	3393.12
201.587	3374.41
201.662	3379.56
201.737	3395.45
201.812	3411.44
201.886	3375.14
201.961	3388.27
202.036	3375.68
202.111	3378.16
202.186	3345.17
202.26	3328.75
202.335	3309.85
202.41	3303.12
202.485	3284.62
202.559	3263.73
202.634	3235.43
202.709	3246.35
202.784	3224.12
202.858	3229.84
202.933	3211.53
203.008	3206.57
203.082	3190.35
203.157	3195.36
203.232	3156.83
203.306	3140.03
203.381	3105.3
203.456	3085.65
203.53	3065.69
203.605	3053.39
203.68	3034.59
203.754	3041.21
203.829	3034.82
203.904	3022.47
203.978	3027.96
204.053	3047.56
204.127	3050.52
204.202	3065.64
204.277	3063.39
204.351	3074.12
204.426	3083.24
204.5	3096.31
204.575	3082.53
204.65	3115.21
204.724	3130.77
204.799	3166.01
204.873	3193.74
204.948	3226.23
205.022	3246.27
205.097	3271.81
205.171	3322.15
205.246	3367.27
205.32	3405.24
205.395	3449.12
205.469	3482.28
205.544	3528.47
205.618	3560.8
205.693	3630.69
205.767	3669.85
205.842	3753.61
205.916	3810.98
205.991	3860.58
206.065	3929.21
206.14	4008.73
206.214	4069.99
206.289	4133.17
206.363	4216.99
206.438	4289.14
206.512	4367.5
206.586	4468.04
206.661	4553.58
206.735	4614.87
206.81	4697.99
206.884	4798.79
206.958	4871.6
207.033	4983.56
207.107	5086.54
207.181	5218.28
207.256	5307.43
207.33	5422.86
207.405	5529.68
207.479	5648.25
207.553	5764.65
207.628	5852.73
207.702	5977.14
207.776	6079.81
207.851	6189.45
207.925	6314.07
207.999	6421.54
208.073	6533.73
208.148	6650.04
208.222	6762.15
208.296	6912.36
208.371	7048.64
208.445	7183.46
208.519	7333.18
208.593	7467.13
208.668	7585.55
208.742	7711.19
208.816	7832.87
208.89	7975.28
208.965	8106.1
209.039	8241.1
209.113	8382.88
209.187	8527.61
209.261	8649.88
209.336	8799.06
209.41	8946.82
209.484	9075.89
209.558	9229.46
209.632	9379.47
209.707	9514.77
209.781	9661.06
209.855	9810.46
209.929	9963.65
210.003	10094.52
210.077	10223.75
210.151	10398.84
210.226	10558.5
210.3	10712.75
210.374	10864.94
210.448	10995.48
210.522	11125.35
210.596	11262.26
210.67	11391.89
210.744	11572.8
210.818	11725.52
210.892	11866.35
210.966	11986.89
211.041	12123.53
211.115	12241.53
211.189	12381.98
211.263	12527.31
211.337	12649.89
211.411	12775.36
211.485	12881.8
211.559	13015.23
211.633	13138.39
211.707	13228.87
211.781	13351.51
211.855	13424.73
211.929	13529.34
212.003	13616.74
212.077	13735.8
212.151	13861.14
212.225	13981.85
212.299	14069.72
212.373	14168.11
212.447	14273.25
212.52	14411.79
212.594	14523.57
212.668	14637.63
212.742	14725.94
212.816	14821.48
212.89	14908.1
212.964	15002.34
213.038	15103.99
213.112	15209.41
213.186	15313.92
213.26	15378.51
213.333	15422.85
213.407	15520.75
213.481	15609.4
213.555	15722.19
213.629	15806.39
213.703	15876.47
213.777	15970.51
213.85	16047.53
213.924	16173.52
213.998	16262.59
214.072	16335.32
214.146	16409.11
214.219	16491.86
214.293	16573.7
214.367	16653.46
214.441	16762.92
214.515	16839.83
214.588	16888.03
214.662	16931.79
214.736	16995.17
214.81	17081.68
214.883	17167.71
214.957	17232.68
215.031	17296.68
215.105	17347.19
215.178	17406.56
215.252	17471.19
215.326	17517.21
215.4	17560.34
215.473	17573.74
215.547	17622.9
215.621	17675.23
215.694	17744.97
215.768	17783.47
215.842	17829.88
215.915	17878.6
215.989	17901.78
216.063	17947.75
216.136	18014.88
216.21	18082.74
216.284	18152.57
216.357	18216.27
216.431	18279.5
216.504	18338.53
216.578	18426.82
216.652	18484.26
216.725	18544.4
216.799	18608.01
216.873	18661.55
216.946	18726.08
217.02	18772.87
217.093	18819.62
217.167	18846.6
217.24	18884.14
217.314	18935.27
217.387	18983.03
217.461	19027.89
217.535	19095.31
217.608	19140.71
217.682	19191.5
217.755	19245.9
217.829	19281.81
217.902	19331.63
217.976	19369.08
218.049	19409.7
218.123	19434.38
218.196	19488.44
218.27	19523.19
218.343	19559.28
218.417	19598.37
218.49	19644.39
218.563	19714.07
218.637	19757.25
218.71	19832.52
218.784	19883.56
218.857	19939.89
218.931	19986.11
219.004	20033.87
219.077	20081.91
219.151	20129.09
219.224	20176.23
219.298	20222.39
219.371	20281.24
219.444	20305.72
219.518	20350.15
219.591	20397.09
219.665	20474.06
219.738	20523.5
219.811	20549.43
219.885	20591.07
219.958	20647.89
220.031	20685
220.105	20733.39
220.178	20785.1
220.251	20813.39
220.325	20851.8
220.398	20892.62
220.471	20947.81
220.544	20995.28
220.618	21022.22
220.691	21062.99
220.764	21095.57
220.838	21131.82
220.911	21160.55
220.984	21222.24
221.057	21275.01
221.131	21324.8
221.204	21322.63
221.277	21373.48
221.35	21453.35
221.424	21490.51
221.497	21527.72
221.57	21569.56
221.643	21600.79
221.716	21638.53
221.79	21670.06
221.863	21698.69
221.936	21725.68
222.009	21755.32
222.082	21777.45
222.155	21796.97
222.229	21836.01
222.302	21869.95
222.375	21902.97
222.448	21942.88
222.521	21963.61
222.594	21974.12
222.667	21984.04
222.74	22022.08
222.814	22036.3
222.887	22044.73
222.96	22075.44
223.033	22101.38
223.106	22123.26
223.179	22144.91
223.252	22160.81
223.325	22177.64
223.398	22194.08
223.471	22211.48
223.544	22218.03
223.617	22249.22
223.69	22280.07
223.763	22281.23
223.837	22295.65
223.91	22303.89
223.983	22290.54
224.056	22298.15
224.129	22319.17
224.202	22343.51
224.275	22344.77
224.348	22346.99
224.42	22335.95
224.493	22320.09
224.566	22317.82
224.639	22341.39
224.712	22338.98
224.785	22345.06
224.858	22357.3
224.931	22376.78
225.004	22376.15
225.077	22380.97
225.15	22355.47
225.223	22364.05
225.296	22403.1
225.369	22399.15
225.442	22389.7
225.514	22397.99
225.587	22403.15
225.66	22417.09
225.733	22412.8
225.806	22418.48
225.879	22427.6
225.952	22430.34
226.025	22458.5
226.097	22474.17
226.17	22455.7
226.243	22434.97
226.316	22439.7
226.389	22439.17
226.461	22439.5
226.534	22451.75
226.607	22457.78
226.68	22486.94
226.753	22493.79
226.825	22462.69
226.898	22472.52
226.971	22470.31
227.044	22477.06
227.117	22477.44
227.189	22473.15
227.262	22478.74
227.335	22489.88
227.407	22481.39
227.48	22493.78
227.553	22494.65
227.626	22490.36
227.698	22497.83
227.771	22512.83
227.844	22497.83
227.916	22492.1
227.989	22466.93
228.062	22444.22
228.134	22463.36
228.207	22453.82
228.28	22425.14
228.352	22420.84
228.425	22414.29
228.498	22426.39
228.57	22418.39
228.643	22421.33
228.716	22415.78
228.788	22400.89
228.861	22377.36
228.934	22380.16
229.006	22362.61
229.079	22344.24
229.151	22325.44
229.224	22291.69
229.296	22275.79
229.369	22285.96
229.442	22293.09
229.514	22280.46
229.587	22295.26
229.659	22261.08
229.732	22248.84
229.804	22261.03
229.877	22281.72
229.949	22283.31
230.022	22306.11
230.094	22284.47
230.167	22276.18
230.239	22254.58
230.312	22255.78
230.384	22279.55
230.457	22269.43
230.529	22259.45
230.602	22247.45
230.674	22237.08
230.747	22245.37
230.819	22250.67
230.892	22212.54
230.964	22208.78
231.037	22201.99
231.109	22186.56
231.181	22189.69
231.254	22167.28
231.326	22147.23
231.399	22124.33
231.471	22106.1
231.544	22053.41
231.616	22053.56
231.688	22037.5
231.761	22013.6
231.833	21987.71
231.905	21937.38
231.978	21917.57
232.05	21897.04
232.122	21883.44
232.195	21866.33
232.267	21869.18
232.339	21846.47
232.412	21839.63
232.484	21805.16
232.556	21778.7
232.629	21785.4
232.701	21764
232.773	21755.61
232.846	21729.68
232.918	21707.31
232.99	21681.96
233.062	21682.2
233.135	21671.02
233.207	21633.18
233.279	21625.56
233.351	21616.31
233.424	21590.96
233.496	21559.48
233.568	21554.42
233.64	21510.71
233.713	21492.53
233.785	21460.48
233.857	21446.31
233.929	21418.5
234.001	21414.93
234.074	21411.08
234.146	21357.96
234.218	21334.82
234.29	21310.44
234.362	21284.02
234.434	21238.91
234.507	21206.04
234.579	21148.97
234.651	21111.04
234.723	21098.95
234.795	21075.04
234.867	21047.62
234.939	21050.41
235.012	21037.01
235.084	21025.73
235.156	21018.65
235.228	20977.78
235.3	20942.02
235.372	20917.01
235.444	20902.88
235.516	20849.68
235.588	20829.34
235.66	20807.36
235.732	20770.93
235.804	20797.19
235.876	20773.77
235.948	20755.12
236.02	20715.41
236.092	20698.54
236.164	20672.61
236.236	20644.81
236.308	20613.48
236.38	20596.18
236.452	20545.82
236.524	20510.92
236.596	20493.91
236.668	20465.57
236.74	20431.07
236.812	20399.55
236.884	20372.42
236.956	20342.11
237.028	20303.21
237.1	20251.79
237.172	20237.63
237.244	20228.37
237.316	20154.87
237.388	20119.98
237.46	20085.43
237.532	20083.74
237.604	20034.64
237.675	20022.11
237.747	19995.55
237.819	19955.17
237.891	19914.06
237.963	19880.19
238.035	19847.18
238.107	19769.2
238.178	19755.66
238.25	19728.29
238.322	19724.38
238.394	19668.82
238.466	19633.16
238.538	19612.97
238.609	19590.56
238.681	19533.21
238.753	19485.75
238.825	19452.88
238.897	19418.18
238.968	19404.16
239.04	19358.09
239.112	19358.09
239.184	19306.29
239.255	19264.51
239.327	19232.22
239.399	19190.2
239.471	19162.54
239.542	19135.26
239.614	19125.43
239.686	19058.54
239.758	19044.81
239.829	18997.34
239.901	18986.45
239.973	18954.69
240.044	18919.27
240.116	18884.05
240.188	18846.56
240.259	18815.95
240.331	18782.99
240.403	18764.73
240.474	18709.46
240.546	18668.16
240.618	18615.97
240.689	18580.84
240.761	18550.91
240.833	18537.9
240.904	18504.5
240.976	18474.24
241.048	18438.58
241.119	18407.35
241.191	18387.93
241.262	18372.66
241.334	18341.33
241.405	18299.84
241.477	18251.02
241.549	18216.04
241.62	18182.11
241.692	18161.58
241.763	18133.34
241.835	18097.01
241.906	18066.6
241.978	18018.69
242.049	18004.57
242.121	17985.39
242.192	17960.24
242.264	17910.6
242.335	17854.41
242.407	17824.48
242.478	17780.58
242.55	17747.52
242.621	17705.3
242.693	17666.27
242.764	17617.4
242.836	17576.87
242.907	17546.37
242.979	17520.97
243.05	17489.16
243.122	17456.49
243.193	17419.86
243.264	17359.24
243.336	17314.8
243.407	17285.4
243.479	17280.34
243.55	17241.79
243.622	17207.28
243.693	17178.56
243.764	17163.33
243.836	17118.99
243.907	17082.41
243.978	17043.81
244.05	17013.64
244.121	16961.83
244.192	16936.48
244.264	16884.67
244.335	16854.6
244.407	16804.18
244.478	16780.18
244.549	16747.99
244.62	16710.35
244.692	16679.45
244.763	16659.89
244.834	16624.32
244.906	16575.98
244.977	16540.07
245.048	16523.83
245.119	16475.05
245.191	16424.69
245.262	16364.68
245.333	16353.26
245.405	16327.14
245.476	16303.52
245.547	16274.46
245.618	16252.24
245.689	16221.44
245.761	16197.44
245.832	16157.58
245.903	16138.78
245.974	16106.01
246.045	16069.09
246.117	16051.64
246.188	16000.55
246.259	15954.76
246.33	15921.98
246.401	15895.42
246.473	15844.52
246.544	15798.4
246.615	15784.13
246.686	15747.69
246.757	15731.4
246.828	15682.28
246.899	15657.03
246.97	15609.36
247.042	15567.81
247.113	15548.58
247.184	15540.04
247.255	15496.61
247.326	15468.85
247.397	15430.48
247.468	15390.91
247.539	15360.83
247.61	15315.04
247.681	15298.27
247.752	15285.25
247.823	15241.58
247.894	15210.05
247.965	15172.12
248.037	15137.12
248.108	15087.09
248.179	15058.41
248.25	15023.94
248.321	15006.78
248.392	14961.23
248.463	14953.66
248.534	14919.97
248.605	14891.48
248.675	14841.78
248.746	14818.89
248.817	14790.3
248.888	14762.68
248.959	14726.29
249.03	14705.75
249.101	14679.34
249.172	14651.14
249.243	14598.88
249.314	14595.51
249.385	14563.84
249.456	14548.36
249.527	14513.22
249.598	14496.06
249.669	14467.67
249.739	14447.09
249.81	14427.66
249.881	14389.87
249.952	14365.14
250.023	14342.24
250.094	14303.29
250.165	14273.93
250.235	14251.03
250.306	14224.04
250.377	14183.64
250.448	14158.67
250.519	14115.82
250.59	14100.83
250.66	14065.2
250.731	14062.5
250.802	14026.01
250.873	14011.35
250.944	13988.17
251.014	13958.76
251.085	13957.03
251.156	13936.97
251.227	13930.13
251.297	13914.07
251.368	13905.2
251.439	13889.78
251.51	13877.73
251.58	13841.86
251.651	13812.41
251.722	13794.57
251.792	13753.31
251.863	13740.48
251.934	13733.2
252.005	13740.39
252.075	13709.97
252.146	13693.29
252.217	13675.26
252.287	13660.99
252.358	13631.01
252.429	13628.26
252.499	13601.07
252.57	13573.88
252.641	13561.93
252.711	13535.17
252.782	13492.75
252.852	13485.95
252.923	13460.02
252.994	13437.84
253.064	13427.09
253.135	13387.23
253.205	13354.3
253.276	13352.56
253.347	13344.85
253.417	13312.79
253.488	13276.16
253.558	13257.26
253.629	13239.04
253.699	13221.2
253.77	13209.05
253.841	13187.36
253.911	13165.91
253.982	13146.29
254.052	13129.51
254.123	13113.22
254.193	13084.59
254.264	13103.67
254.334	13071.81
254.405	13028.76
254.475	12992.27
254.546	12972.99
254.616	12968.99
254.687	12957.85
254.757	12948.07
254.827	12923.24
254.898	12905.26
254.968	12882.31
255.039	12851.27
255.109	12838.74
255.18	12802.58
255.25	12754.62
255.321	12739.05
255.391	12699.13
255.461	12709.69
255.532	12664.28
255.602	12634.83
255.673	12595.64
255.743	12560.4
255.813	12515.47
255.884	12516.44
255.954	12514.22
256.024	12511.81
256.095	12491.95
256.165	12459.46
256.235	12444.32
256.306	12412.85
256.376	12405.42
256.446	12398.43
256.517	12386.72
256.587	12378.04
256.657	12362.38
256.728	12351.1
256.798	12326.37
256.868	12307.71
256.938	12268.52
257.009	12265.49
257.079	12250.5
257.149	12261.24
257.219	12220.8
257.29	12208.95
257.36	12170.38
257.43	12155.15
257.5	12104.68
257.571	12078.9
257.641	12070.75
257.711	12028.62
257.781	12007.8
257.852	11989.53
257.922	11950.05
257.992	11929.37
258.062	11904.45
258.132	11895.54
258.202	11875.63
258.273	11862.81
258.343	11860.25
258.413	11839.82
258.483	11812.87
258.553	11778.94
258.623	11750.98
258.693	11738.65
258.764	11741.87
258.834	11741.39
258.904	11722.06
258.974	11699.94
259.044	11678.93
259.114	11660.85
259.184	11649.09
259.254	11637.24
259.324	11594.68
259.394	11581.76
259.464	11582.44
259.535	11562.19
259.605	11536.99
259.675	11507.54
259.745	11497.42
259.815	11468.31
259.885	11441.17
259.955	11454.91
260.025	11433.95
260.095	11413.75
260.165	11400.79
260.235	11392.55
260.305	11362.42
260.375	11331.77
260.445	11342.23
260.515	11347.1
260.585	11340.59
260.655	11317.84
260.725	11306.66
260.795	11306.56
260.865	11310.18
260.934	11280.92
261.004	11272.59
261.074	11260.92
261.144	11266.13
261.214	11257.55
261.284	11243.72
261.354	11240.88
261.424	11212.78
261.494	11212.63
261.564	11204.1
261.634	11192.15
261.703	11156.73
261.773	11148.92
261.843	11141.45
