Data from 20250703_urea_0.1M_MAYP1162681_01-11-05-695.txt Node
Date: Fri Jul 04 01:11:05 BST 2025
User: adleo
Spectrometer: MAYP116268
Trigger mode: 0
Integration Time (sec): 1.000000E0
Scans to average: 1
Electric dark correction enabled: true
Nonlinearity correction enabled: true
Boxcar width: 10
XAxis mode: Wavelengths
Number of Pixels in Spectrum: 2068
>>>>>Begin Spectral Data<<<<<
179.565	1345.86
179.642	1409.79
179.718	1455.9
179.795	1502.27
179.871	1539.92
179.948	1560.76
180.024	1581.38
180.101	1606.59
180.177	1623.57
180.254	1649.49
180.33	1671.43
180.407	1735.97
180.483	1841.92
180.56	1942.6
180.636	2037.9
180.712	2023.44
180.789	2033.33
180.865	2046.26
180.942	2053.06
181.018	2063.76
181.095	2078.37
181.171	2079.89
181.248	2081.46
181.324	2099.54
181.4	2105.82
181.477	2117.67
181.553	2132.13
181.63	2157.63
181.706	2173.95
181.782	2183.17
181.859	2180.84
181.935	2188.79
182.011	2186.36
182.088	2206.06
182.164	2228.29
182.24	2242.33
182.317	2253.65
182.393	2255.65
182.469	2271.78
182.546	2286.19
182.622	2294.71
182.698	2291.33
182.775	2306.04
182.851	2321.27
182.927	2313.51
183.003	2308.23
183.08	2302.56
183.156	2311.65
183.232	2307.84
183.308	2297.76
183.385	2304.85
183.461	2325.74
183.537	2329.21
183.613	2340.16
183.69	2328.5
183.766	2316.74
183.842	2324.64
183.918	2329.87
183.995	2342.39
184.071	2345.77
184.147	2340.63
184.223	2324.55
184.299	2336.5
184.375	2325.79
184.452	2329.41
184.528	2382.02
184.604	2393.58
184.68	2402.72
184.756	2412.34
184.832	2416.48
184.908	2421.28
184.985	2421
185.061	2403.96
185.137	2412.19
185.213	2400.34
185.289	2401.63
185.365	2393.4
185.441	2390.97
185.517	2406.45
185.593	2402.35
185.669	2398.02
185.745	2411.44
185.822	2429.67
185.898	2418.67
185.974	2428.57
186.05	2422.09
186.126	2384.29
186.202	2376.53
186.278	2375.77
186.354	2363.39
186.43	2370.49
186.506	2368.35
186.582	2368.87
186.658	2374.39
186.734	2351.59
186.81	2356.54
186.886	2356.4
186.962	2369.01
187.038	2366.54
187.114	2358.25
187.19	2366.29
187.266	2356.78
187.341	2358.87
187.417	2353.78
187.493	2356.25
187.569	2359.11
187.645	2354.02
187.721	2344.31
187.797	2351.68
187.873	2355.59
187.949	2349.02
188.025	2341.02
188.101	2343.11
188.176	2346.21
188.252	2343.83
188.328	2351.63
188.404	2348.49
188.48	2347.82
188.556	2340.87
188.632	2339.63
188.707	2339.11
188.783	2336.54
188.859	2332.73
188.935	2318.64
189.011	2324.88
189.086	2318.5
189.162	2307.22
189.238	2303.13
189.314	2299.51
189.39	2293.04
189.465	2284.56
189.541	2303.46
189.617	2287
189.693	2282.52
189.768	2290.33
189.844	2317.38
189.92	2310.77
189.996	2321
190.071	2332.28
190.147	2333.38
190.223	2344.28
190.298	2336.42
190.374	2321.86
190.45	2333.99
190.526	2343.56
190.601	2341.8
190.677	2342.99
190.753	2373.09
190.828	2379.08
190.904	2393.65
190.98	2411.79
191.055	2423.5
191.131	2415.59
191.207	2439.15
191.282	2452.05
191.358	2440.96
191.433	2424.81
191.509	2436.13
191.585	2433.37
191.66	2431.33
191.736	2436.51
191.811	2427.9
191.887	2444.14
191.963	2470.8
192.038	2475.89
192.114	2476.27
192.189	2475.89
192.265	2473.99
192.34	2452.55
192.416	2447.84
192.491	2445.56
192.567	2448.51
192.642	2453.08
192.718	2453.89
192.793	2439.04
192.869	2432.9
192.944	2433.9
193.02	2441.52
193.095	2448.85
193.171	2453.32
193.246	2453.32
193.322	2453.89
193.397	2453.85
193.473	2436.46
193.548	2414.09
193.624	2420.61
193.699	2419.09
193.775	2437.04
193.85	2434.76
193.925	2443.61
194.001	2446.99
194.076	2438.99
194.152	2427.71
194.227	2419.9
194.302	2406.24
194.378	2411
194.453	2407.43
194.529	2421.19
194.604	2403.86
194.679	2399.67
194.755	2382.3
194.83	2397.4
194.905	2395.68
194.981	2404.44
195.056	2398.45
195.131	2407.21
195.207	2404.92
195.282	2393.73
195.357	2370.26
195.433	2389.87
195.508	2376.25
195.583	2383.82
195.659	2396.2
195.734	2402.2
195.809	2399.39
195.884	2410.91
195.96	2415.24
196.035	2432.38
196.11	2429.43
196.185	2441.23
196.261	2443.9
196.336	2478.08
196.411	2463.84
196.486	2465.32
196.561	2457.89
196.637	2468.27
196.712	2486.65
196.787	2490.89
196.862	2509.32
196.937	2525.46
197.013	2530.6
197.088	2541.74
197.163	2563.61
197.238	2587.39
197.313	2588.15
197.388	2601.3
197.464	2634.27
197.539	2642.74
197.614	2634.98
197.689	2646.99
197.764	2667.76
197.839	2687.77
197.914	2679.71
197.989	2704.87
198.065	2722.73
198.14	2775.6
198.215	2803.62
198.29	2810.91
198.365	2825.06
198.44	2835.21
198.515	2863.19
198.59	2879.83
198.665	2911.43
198.74	2920.63
198.815	2919.48
198.89	2943.74
198.965	2975.59
199.04	2969.44
199.115	2990.03
199.19	3039.09
199.265	3043.19
199.34	3053.25
199.415	3090.12
199.49	3113.91
199.565	3122.68
199.64	3146.62
199.715	3145.14
199.79	3153.92
199.865	3164.12
199.94	3163.65
200.015	3197.04
200.09	3202.52
200.165	3210.54
200.24	3216.6
200.315	3263.1
200.39	3278.04
200.464	3287.91
200.539	3293.07
200.614	3313.86
200.689	3337.96
200.764	3343.83
200.839	3364.15
200.914	3367.49
200.989	3355.93
201.063	3372.92
201.138	3357.62
201.213	3359.67
201.288	3340.73
201.363	3346.93
201.438	3351.84
201.512	3366.67
201.587	3348.64
201.662	3354.74
201.737	3367.06
201.812	3371.88
201.886	3334.77
201.961	3349.04
202.036	3335.92
202.111	3335.11
202.186	3302.35
202.26	3282.88
202.335	3259.41
202.41	3253.68
202.485	3238.9
202.559	3220.06
202.634	3193.63
202.709	3201.44
202.784	3183.51
202.858	3183.8
202.933	3164.24
203.008	3155.8
203.082	3143.02
203.157	3145.02
203.232	3103.87
203.306	3086.84
203.381	3066.99
203.456	3047.34
203.53	3030.11
203.605	3015.05
203.68	2998.4
203.754	3001.54
203.829	2996.15
203.904	2985
203.978	2988.67
204.053	3005.27
204.127	3004.27
204.202	3020.05
204.277	3019.77
204.351	3030.3
204.426	3040.47
204.5	3057.16
204.575	3043.52
204.65	3075.83
204.724	3096.68
204.799	3130.81
204.873	3156.54
204.948	3183.64
205.022	3202.38
205.097	3225.25
205.171	3277.25
205.246	3323.71
205.32	3360.67
205.395	3402.35
205.469	3440.04
205.544	3488.04
205.618	3517.5
205.693	3579.58
205.767	3615.2
205.842	3695.46
205.916	3742.41
205.991	3793.96
206.065	3858.85
206.14	3940.71
206.214	3995.13
206.289	4054.66
206.363	4137.94
206.438	4208.69
206.512	4290.73
206.586	4389.34
206.661	4471.37
206.735	4527.67
206.81	4605.62
206.884	4709.6
206.958	4783.36
207.033	4887.52
207.107	4986.32
207.181	5112.6
207.256	5199.79
207.33	5310.69
207.405	5419.46
207.479	5542.41
207.553	5647.91
207.628	5732.61
207.702	5847.89
207.776	5952.02
207.851	6061.93
207.925	6177.64
207.999	6284.33
208.073	6387.05
208.148	6497.09
208.222	6601.63
208.296	6750.6
208.371	6882.63
208.445	7013.84
208.519	7160.51
208.593	7289.29
208.668	7399.32
208.742	7514.58
208.816	7639.55
208.89	7782.32
208.965	7898.06
209.039	8029.24
209.113	8172.48
209.187	8317.86
209.261	8433.22
209.336	8573.52
209.41	8707.54
209.484	8832.92
209.558	8981.56
209.632	9117.05
209.707	9255.51
209.781	9404.47
209.855	9545.33
209.929	9693.87
210.003	9819.34
210.077	9942.4
210.151	10111.24
210.226	10277.2
210.3	10440.49
210.374	10586.5
210.448	10705.17
210.522	10832.81
210.596	10952.98
210.67	11076
210.744	11242.97
210.818	11401.03
210.892	11544.35
210.966	11663.1
211.041	11807.64
211.115	11922.15
211.189	12070.41
211.263	12202.04
211.337	12318.64
211.411	12441.21
211.485	12541.43
211.559	12668.44
211.633	12784.52
211.707	12871.43
211.781	12987.17
211.855	13051.29
211.929	13151.36
212.003	13252.16
212.077	13379.23
212.151	13504.46
212.225	13622.62
212.299	13717.34
212.373	13808.4
212.447	13906.5
212.52	14043.4
212.594	14143.57
212.668	14253.1
212.742	14334.13
212.816	14424.47
212.89	14507.04
212.964	14607.36
213.038	14704.49
213.112	14816.51
213.186	14917.26
213.26	14991.35
213.333	15033.04
213.407	15125.64
213.481	15216.75
213.555	15311.03
213.629	15382.61
213.703	15463.69
213.777	15556.18
213.85	15627.33
213.924	15749.75
213.998	15836.95
214.072	15913.77
214.146	15982.46
214.219	16065.26
214.293	16150.43
214.367	16241.33
214.441	16347.13
214.515	16420.24
214.588	16480
214.662	16514.61
214.736	16573.17
214.81	16645.56
214.883	16726.2
214.957	16801.67
215.031	16865.58
215.105	16919.42
215.178	16982.75
215.252	17043.28
215.326	17084.53
215.4	17137.45
215.473	17153.79
215.547	17200.1
215.621	17253.88
215.694	17326.75
215.768	17376.44
215.842	17419.81
215.915	17465.21
215.989	17501.79
216.063	17545.5
216.136	17609.3
216.21	17667.62
216.284	17744.77
216.357	17804.67
216.431	17856.82
216.504	17924.77
216.578	18011.42
216.652	18079.8
216.725	18130.4
216.799	18189.29
216.873	18252.32
216.946	18308.17
217.02	18350.2
217.093	18402
217.167	18424.36
217.24	18459.97
217.314	18499.3
217.387	18544.79
217.461	18593.03
217.535	18655.34
217.608	18693.02
217.682	18733.36
217.755	18801.35
217.829	18837.93
217.902	18892.29
217.976	18947.13
218.049	18979.32
218.123	19005.34
218.196	19047.55
218.27	19088.52
218.343	19115.45
218.417	19159.21
218.49	19199.79
218.563	19271.06
218.637	19319.73
218.71	19394.62
218.784	19449.03
218.857	19512.54
218.931	19561.6
219.004	19604.58
219.077	19644.15
219.151	19695.95
219.224	19739.08
219.298	19775.18
219.371	19828.33
219.444	19852.76
219.518	19887.75
219.591	19934.35
219.665	20008.09
219.738	20059.17
219.811	20091.36
219.885	20148.47
219.958	20200.32
220.031	20241.53
220.105	20282.44
220.178	20328.56
220.251	20361.04
220.325	20411.45
220.398	20451.94
220.471	20497.43
220.544	20539.07
220.618	20578.97
220.691	20624.52
220.764	20670.83
220.838	20714.2
220.911	20747.94
220.984	20818.98
221.057	20873.68
221.131	20922.55
221.204	20920.96
221.277	20981.21
221.35	21053.07
221.424	21083.43
221.497	21111.58
221.57	21147.53
221.643	21189.51
221.716	21222.81
221.79	21248.98
221.863	21273.13
221.936	21296.03
222.009	21325.23
222.082	21359.55
222.155	21384.32
222.229	21427.9
222.302	21459.37
222.375	21482.89
222.448	21512.92
222.521	21534.22
222.594	21559.09
222.667	21559.96
222.74	21596.98
222.814	21613.32
222.887	21630.14
222.96	21665.96
223.033	21707.94
223.106	21732.43
223.179	21755.95
223.252	21781.88
223.325	21802.71
223.398	21820.44
223.471	21840.35
223.544	21856.79
223.617	21872.5
223.69	21898.1
223.763	21906.39
223.837	21928.13
223.91	21947.6
223.983	21948.66
224.056	21948.86
224.129	21966.79
224.202	22004.39
224.275	22018.03
224.348	22013.21
224.42	22010.99
224.493	22011.47
224.566	22003.61
224.639	22021.64
224.712	22026.7
224.785	22029.35
224.858	22038.37
224.931	22044.2
225.004	22048.44
225.077	22067.44
225.15	22056.35
225.223	22059
225.296	22096.31
225.369	22089.81
225.442	22088.89
225.514	22099.4
225.587	22110.15
225.66	22117.52
225.733	22121.62
225.806	22130.73
225.879	22141.19
225.952	22133.82
226.025	22144.38
226.097	22171.71
226.17	22176.53
226.243	22155.27
226.316	22155.18
226.389	22159.18
226.461	22163.71
226.534	22158.79
226.607	22160.96
226.68	22192.05
226.753	22193.4
226.825	22156.96
226.898	22173.35
226.971	22172.29
227.044	22185.54
227.117	22192.87
227.189	22200.92
227.262	22205.45
227.335	22204.34
227.407	22195.38
227.48	22207.96
227.553	22211.43
227.626	22208.25
227.698	22199.91
227.771	22210.95
227.844	22206.95
227.916	22208.1
227.989	22190.7
228.062	22185.69
228.134	22199.38
228.207	22185.01
228.28	22170.5
228.352	22164.72
228.425	22147.7
228.498	22163.27
228.57	22143.65
228.643	22153.1
228.716	22136.18
228.788	22123.21
228.861	22106.53
228.934	22114.2
229.006	22103.5
229.079	22091.01
229.151	22066.28
229.224	22045.55
229.296	22034.18
229.369	22050.33
229.442	22054.14
229.514	22042.18
229.587	22052.16
229.659	22020.25
229.732	22019.28
229.804	22027.43
229.877	22048.83
229.949	22051.73
230.022	22053.17
230.094	22050.95
230.167	22046.76
230.239	22030.76
230.312	22022.85
230.384	22043.68
230.457	22041.22
230.529	22041.8
230.602	22034.47
230.674	22027.82
230.747	22034.56
230.819	22046.57
230.892	22007.52
230.964	22001.01
231.037	22008.82
231.109	21990.36
231.181	21993.45
231.254	21972.96
231.326	21961.05
231.399	21940.81
231.471	21926.25
231.544	21897.33
231.616	21892.84
231.688	21870.81
231.761	21848.59
231.833	21827.63
231.905	21775.57
231.978	21754.26
232.05	21731.12
232.122	21713.63
232.195	21686.1
232.267	21687.02
232.339	21663.02
232.412	21656.99
232.484	21636.36
232.556	21605.17
232.629	21615.78
232.701	21603.78
232.773	21588.98
232.846	21560.54
232.918	21535.72
232.99	21516.97
233.062	21501.45
233.135	21489.78
233.207	21461.39
233.279	21455.99
233.351	21447.37
233.424	21433.1
233.496	21395.8
233.568	21394.06
233.64	21357.29
233.713	21344.27
233.785	21318.1
233.857	21299.35
233.929	21258.91
234.001	21256.02
234.074	21247.73
234.146	21206.67
234.218	21185.03
234.29	21159.29
234.362	21127.09
234.434	21093.55
234.507	21061.02
234.579	21015.28
234.651	20970.07
234.723	20952.72
234.795	20926.84
234.867	20905.54
234.939	20903.32
235.012	20881.15
235.084	20865.05
235.156	20849.58
235.228	20813.73
235.3	20771.27
235.372	20749.05
235.444	20737.96
235.516	20689.38
235.588	20666.73
235.66	20639.36
235.732	20599.07
235.804	20635.69
235.876	20621.04
235.948	20612.37
236.02	20580.95
236.092	20562.2
236.164	20547.7
236.236	20505.24
236.308	20477.57
236.38	20433.14
236.452	20393.62
236.524	20377.29
236.596	20359.26
236.668	20340.13
236.74	20315.36
236.812	20296.8
236.884	20264.13
236.956	20239.41
237.028	20191.55
237.1	20142.59
237.172	20131.07
237.244	20119.46
237.316	20045.43
237.388	20012.81
237.46	19973.87
237.532	19961.48
237.604	19912.91
237.675	19892.67
237.747	19869.87
237.819	19829.25
237.891	19807.71
237.963	19762.94
238.035	19726.55
238.107	19647.28
238.178	19634.75
238.25	19602.94
238.322	19599.23
238.394	19554.51
238.466	19514.95
238.538	19489.12
238.609	19467.05
238.681	19404.26
238.753	19357.56
238.825	19328.65
238.897	19299.01
238.968	19281.52
239.04	19241.28
239.112	19245.62
239.184	19199.11
239.255	19165.19
239.327	19136.66
239.399	19102.2
239.471	19081.67
239.542	19047.8
239.614	19039.17
239.686	18976.81
239.758	18955.42
239.829	18906.99
239.901	18878.12
239.973	18846.07
240.044	18832.05
240.116	18808.73
240.188	18784.58
240.259	18749.89
240.331	18703
240.403	18670.13
240.474	18609.94
240.546	18564.21
240.618	18499.54
240.689	18459.06
240.761	18425.28
240.833	18405.33
240.904	18373.09
240.976	18345.04
241.048	18310.44
241.119	18278.97
241.191	18249
241.262	18233.72
241.334	18186.16
241.405	18151.8
241.477	18108.81
241.549	18057.44
241.62	18018.69
241.692	17982.07
241.763	17965.3
241.835	17938.17
241.906	17911.04
241.978	17871.47
242.049	17849.3
242.121	17836.77
242.192	17808.63
242.264	17760
242.335	17711.23
242.407	17673.93
242.478	17623.72
242.55	17595.23
242.621	17557.6
242.693	17523.77
242.764	17484.25
242.836	17451.57
242.907	17426.08
242.979	17397.31
243.05	17368.06
243.122	17338.9
243.193	17319.96
243.264	17257.93
243.336	17219.28
243.407	17191.48
243.479	17166.03
243.55	17141.98
243.622	17104.82
243.693	17078.46
243.764	17065.35
243.836	17018.41
243.907	16990.99
243.978	16961.78
244.05	16933.15
244.121	16880.28
244.192	16846.59
244.264	16784.91
244.335	16755.36
244.407	16707.02
244.478	16684.9
244.549	16645.04
244.62	16600.22
244.692	16557.32
244.763	16538.19
244.834	16493.22
244.906	16446.23
244.977	16423.05
245.048	16400.88
245.119	16370.23
245.191	16324.44
245.262	16265.78
245.333	16257.64
245.405	16230.26
245.476	16204.28
245.547	16176.91
245.618	16150.93
245.689	16124.03
245.761	16101.19
245.832	16061.09
245.903	16037.52
245.974	16002.91
246.045	15976.35
246.117	15963.19
246.188	15914.99
246.259	15870.26
246.33	15840.86
246.401	15809.34
246.473	15758.25
246.544	15713.18
246.615	15681.9
246.686	15648.01
246.757	15637.89
246.828	15591.09
246.899	15569.45
246.97	15519.17
247.042	15471.6
247.113	15454.05
247.184	15450.15
247.255	15412.79
247.326	15383.58
247.397	15350.76
247.468	15328.49
247.539	15299.95
247.61	15255.56
247.681	15241.48
247.752	15221.34
247.823	15179.06
247.894	15155.83
247.965	15125.41
248.037	15092.1
248.108	15044.53
248.179	15019.07
248.25	14980.95
248.321	14961.33
248.392	14911.49
248.463	14905.07
248.534	14881.12
248.605	14861.4
248.675	14811.46
248.746	14795.32
248.817	14781.87
248.888	14764.22
248.959	14710.67
249.03	14689.46
249.101	14659.72
249.172	14620.86
249.243	14566.73
249.314	14565.91
249.385	14534.29
249.456	14515.25
249.527	14483.19
249.598	14464.01
249.669	14432.96
249.739	14409.68
249.81	14387.02
249.881	14345.66
249.952	14315.92
250.023	14282.22
250.094	14241.59
250.165	14206.01
250.235	14167.69
250.306	14135.53
250.377	14089.5
250.448	14073.25
250.519	14020.66
250.59	14007.79
250.66	13981.85
250.731	13981.95
250.802	13943.29
250.873	13925.16
250.944	13902.07
251.014	13880.04
251.085	13883.51
251.156	13867.65
251.227	13858.3
251.297	13848.08
251.368	13840.32
251.439	13828.27
251.51	13819.45
251.58	13777.94
251.651	13755.04
251.722	13747.52
251.792	13700.95
251.863	13669.38
251.934	13661.09
252.005	13673.38
252.075	13646.14
252.146	13636.98
252.217	13624.69
252.287	13614.04
252.358	13587.86
252.429	13578.17
252.499	13535.8
252.57	13505.52
252.641	13485.86
252.711	13454.62
252.782	13406.12
252.852	13403.86
252.923	13374.64
252.994	13348.13
253.064	13337.43
253.135	13310.91
253.205	13282.81
253.276	13286.86
253.347	13294.81
253.417	13263.19
253.488	13232.77
253.558	13206.11
253.629	13178.68
253.699	13164.56
253.77	13144.84
253.841	13118.47
253.911	13103
253.982	13091.09
254.052	13075.86
254.123	13056.05
254.193	13044.77
254.264	13069.4
254.334	13033.15
254.405	13000.03
254.475	12973.13
254.546	12951.68
254.616	12937.61
254.687	12915.14
254.757	12904.05
254.827	12874.94
254.898	12860.38
254.968	12830.3
255.039	12799.74
255.109	12790.34
255.18	12747.34
255.25	12703.13
255.321	12691.42
255.391	12649.14
255.461	12650.45
255.532	12610.05
255.602	12585.42
255.673	12536.92
255.743	12504.1
255.813	12454.25
255.884	12442.59
255.954	12430.2
256.024	12440.71
256.095	12421.57
256.165	12389.03
256.235	12358.18
256.306	12331.43
256.376	12317.55
256.446	12313.74
256.517	12304.19
256.587	12291.23
256.657	12278.16
256.728	12263.22
256.798	12242.88
256.868	12222.1
256.938	12194.44
257.009	12182.82
257.079	12168.55
257.149	12180.12
257.219	12132.54
257.29	12129.65
257.36	12096.15
257.43	12089.4
257.5	12036.14
257.571	12013.2
257.641	12000.71
257.711	11976.23
257.781	11960.22
257.852	11946.39
257.922	11903.39
257.992	11884.21
258.062	11862.62
258.132	11856.78
258.202	11835.09
258.273	11816.87
258.343	11823.57
258.413	11791.71
258.483	11771.37
258.553	11742.5
258.623	11710.45
258.693	11700.14
258.764	11696.13
258.834	11697.97
258.904	11672.71
258.974	11648.27
259.044	11625.43
259.114	11615.84
259.184	11601.52
259.254	11583.5
259.324	11542.29
259.394	11531.54
259.464	11524.79
259.535	11503.25
259.605	11473.22
259.675	11452.64
259.745	11433.51
259.815	11392.44
259.885	11373.7
259.955	11390.42
260.025	11365.89
260.095	11347.24
260.165	11329.89
260.235	11328.2
260.305	11291.38
260.375	11261.7
260.445	11266.76
260.515	11276.06
260.585	11264.88
260.655	11245.99
260.725	11242.27
260.795	11239
260.865	11241.31
260.934	11222.47
261.004	11208.68
261.074	11196.15
261.144	11195.86
261.214	11189.6
261.284	11178.27
261.354	11174.71
261.424	11142.13
261.494	11149.11
261.564	11137.21
261.634	11134.56
261.703	11093.16
261.773	11091.09
261.843	11087.86
261.913	11074.13
261.983	11031.19
