Data from 20250703_urea_0.1M_MAYP1162681_07-41-04-812.txt Node
Date: Fri Jul 04 07:41:04 BST 2025
User: adleo
Spectrometer: MAYP116268
Trigger mode: 0
Integration Time (sec): 1.000000E0
Scans to average: 1
Electric dark correction enabled: true
Nonlinearity correction enabled: true
Boxcar width: 10
XAxis mode: Wavelengths
Number of Pixels in Spectrum: 2068
>>>>>Begin Spectral Data<<<<<
179.565	1233.55
179.642	1290.48
179.718	1334.59
179.795	1378.03
179.871	1412.29
179.948	1431.65
180.024	1453.15
180.101	1476.02
180.177	1490.34
180.254	1514.81
180.33	1535.76
180.407	1592.36
180.483	1692.13
180.56	1786.25
180.636	1873.46
180.712	1860.58
180.789	1870.99
180.865	1884.82
180.942	1893.85
181.018	1907.3
181.095	1919.71
181.171	1924.23
181.248	1926.89
181.324	1943.58
181.4	1947.82
181.477	1960.28
181.553	1973.06
181.63	1994.22
181.706	2011.01
181.782	2019.76
181.859	2019.14
181.935	2027.03
182.011	2024.18
182.088	2039.92
182.164	2058.19
182.24	2073.17
182.317	2082.35
182.393	2081.78
182.469	2095.9
182.546	2110.74
182.622	2112.22
182.698	2104.61
182.775	2118.78
182.851	2133.01
182.927	2124.54
183.003	2123.21
183.08	2115.6
183.156	2126.2
183.232	2122.45
183.308	2109.98
183.385	2119.73
183.461	2135.53
183.537	2137.38
183.613	2150.65
183.69	2139.67
183.766	2130.34
183.842	2137.14
183.918	2144.13
183.995	2156.65
184.071	2159.64
184.147	2153.46
184.223	2145.66
184.299	2165.93
184.375	2152.75
184.452	2160.32
184.528	2210.28
184.604	2218.51
184.68	2230.35
184.756	2238.11
184.832	2241.39
184.908	2246.91
184.985	2245.24
185.061	2230.07
185.137	2236.92
185.213	2224.88
185.289	2228.4
185.365	2219.27
185.441	2216.51
185.517	2227.65
185.593	2224.65
185.669	2220.27
185.745	2231.84
185.822	2248.29
185.898	2236.49
185.974	2246.57
186.05	2236.53
186.126	2202.23
186.202	2197.85
186.278	2196.28
186.354	2185.38
186.43	2193.85
186.506	2192.62
186.582	2193.24
186.658	2201.23
186.734	2184.34
186.81	2185.2
186.886	2187.34
186.962	2199.32
187.038	2197.04
187.114	2185.62
187.19	2191.99
187.266	2184.24
187.341	2185.14
187.417	2179.1
187.493	2180.81
187.569	2183.38
187.645	2179.24
187.721	2167.87
187.797	2174.06
187.873	2176.77
187.949	2170.54
188.025	2162.21
188.101	2164.06
188.176	2169.73
188.252	2164.87
188.328	2170.96
188.404	2170.2
188.48	2167.06
188.556	2161.59
188.632	2159.78
188.707	2162.97
188.783	2160.26
188.859	2155.31
188.935	2142.56
189.011	2149.84
189.086	2142.99
189.162	2135.95
189.238	2132.14
189.314	2130.86
189.39	2125.15
189.465	2117.92
189.541	2134.76
189.617	2118.78
189.693	2116.97
189.768	2117.64
189.844	2144.05
189.92	2135.4
189.996	2147.39
190.071	2156.33
190.147	2156.71
190.223	2167.8
190.298	2161.33
190.374	2150.48
190.45	2161.99
190.526	2173.17
190.601	2164.51
190.677	2163.47
190.753	2190.84
190.828	2194.5
190.904	2208.54
190.98	2220.29
191.055	2233.23
191.131	2224.81
191.207	2248.55
191.282	2255.54
191.358	2246.65
191.433	2229.65
191.509	2243.2
191.585	2240.68
191.66	2242.82
191.736	2251.06
191.811	2241.82
191.887	2258.58
191.963	2279.42
192.038	2285.8
192.114	2282.51
192.189	2287.6
192.265	2285.46
192.34	2264.32
192.416	2262.71
192.491	2258.18
192.567	2262.61
192.642	2263.13
192.718	2263.75
192.793	2253.14
192.869	2248.91
192.944	2252.81
193.02	2260.14
193.095	2261.56
193.171	2264.28
193.246	2261.33
193.322	2256.38
193.397	2255.85
193.473	2240.95
193.548	2224.77
193.624	2229.15
193.699	2230.44
193.775	2246.72
193.85	2249.24
193.925	2255.47
194.001	2257.18
194.076	2250.43
194.152	2239.48
194.227	2230.91
194.302	2222.16
194.378	2225.54
194.453	2223.68
194.529	2233.44
194.604	2218.83
194.679	2215.31
194.755	2198.33
194.83	2213.66
194.905	2213.33
194.981	2221.75
195.056	2213.66
195.131	2217.18
195.207	2218.13
195.282	2210
195.357	2192.1
195.433	2205.57
195.508	2193.86
195.583	2198.33
195.659	2211.75
195.734	2221.03
195.809	2222.84
195.884	2229.36
195.96	2228.22
196.035	2242.63
196.11	2241.16
196.185	2254.43
196.261	2259.76
196.336	2292.88
196.411	2278.98
196.486	2283.41
196.561	2278.32
196.637	2289.3
196.712	2308.3
196.787	2309.49
196.862	2320.53
196.937	2331.71
197.013	2339.19
197.088	2352.18
197.163	2374.51
197.238	2394.56
197.313	2393.47
197.388	2404.61
197.464	2435.94
197.539	2446.74
197.614	2441.51
197.689	2451.07
197.764	2465.98
197.839	2486.98
197.914	2479.07
197.989	2503.17
198.065	2516.93
198.14	2567.91
198.215	2593.58
198.29	2606.11
198.365	2619.64
198.44	2633.73
198.515	2660.41
198.59	2674.03
198.665	2700.05
198.74	2712.39
198.815	2712.39
198.89	2737.21
198.965	2769.8
199.04	2765.99
199.115	2784.05
199.19	2827.54
199.265	2832.59
199.34	2842.98
199.415	2875.45
199.49	2897.27
199.565	2907.28
199.64	2930.64
199.715	2928.01
199.79	2935.92
199.865	2941.07
199.94	2938.98
200.015	2968.01
200.09	2974.49
200.165	2980.4
200.24	2988.03
200.315	3028.46
200.39	3043.95
200.464	3048.53
200.539	3049.34
200.614	3066.5
200.689	3090.34
200.764	3095.83
200.839	3117.28
200.914	3125.05
200.989	3115.27
201.063	3127.95
201.138	3109.08
201.213	3112.28
201.288	3092.73
201.363	3100.36
201.438	3099.45
201.512	3116.66
201.587	3100.73
201.662	3107.5
201.737	3123.43
201.812	3130.01
201.886	3094.98
201.961	3105.24
202.036	3095.94
202.111	3092.84
202.186	3066.49
202.26	3047.5
202.335	3027.05
202.41	3018.37
202.485	2999.83
202.559	2982.09
202.634	2960.73
202.709	2974.6
202.784	2957.53
202.858	2960.3
202.933	2942.08
203.008	2940.04
203.082	2921.83
203.157	2924.98
203.232	2884.09
203.306	2867.21
203.381	2841.32
203.456	2823.25
203.53	2803.46
203.605	2787.83
203.68	2769.15
203.754	2769.91
203.829	2762.38
203.904	2750.61
203.978	2750.56
204.053	2766.58
204.127	2762.29
204.202	2771.91
204.277	2763.91
204.351	2769.01
204.426	2772.63
204.5	2778.83
204.575	2760.63
204.65	2791.9
204.724	2802.39
204.799	2829.59
204.873	2847.29
204.948	2867.83
205.022	2881.7
205.097	2900.64
205.171	2943.83
205.246	2984.32
205.32	3013.97
205.395	3046.78
205.469	3070.95
205.544	3112.41
205.618	3132.16
205.693	3185.6
205.767	3213.41
205.842	3275.93
205.916	3315.44
205.991	3353.81
206.065	3409.27
206.14	3475.97
206.214	3518.09
206.289	3564.71
206.363	3632.85
206.438	3690.57
206.512	3755.16
206.586	3833.78
206.661	3902.19
206.735	3941.31
206.81	4004.91
206.884	4084.68
206.958	4143.86
207.033	4234.15
207.107	4309.36
207.181	4412.03
207.256	4479.26
207.33	4572.36
207.405	4662.72
207.479	4757.16
207.553	4839.47
207.628	4900.11
207.702	4988.49
207.776	5067.76
207.851	5157.86
207.925	5258.6
207.999	5341.41
208.073	5426.04
208.148	5513.1
208.222	5590.53
208.296	5713.42
208.371	5814.07
208.445	5909.76
208.519	6026.03
208.593	6126.78
208.668	6216.82
208.742	6312.18
208.816	6405.04
208.89	6508.46
208.965	6605.17
209.039	6705.88
209.113	6823.21
209.187	6942.42
209.261	7039.4
209.336	7156.54
209.41	7273.61
209.484	7369.46
209.558	7492.48
209.632	7605.29
209.707	7718.33
209.781	7840.21
209.855	7954.2
209.929	8074.28
210.003	8185.68
210.077	8285.26
210.151	8433.53
210.226	8566.74
210.3	8691.16
210.374	8805.77
210.448	8906.6
210.522	9006.34
210.596	9116
210.67	9214.25
210.744	9357.4
210.818	9484.06
210.892	9597.56
210.966	9689.01
211.041	9801.8
211.115	9883.14
211.189	9998.78
211.263	10099.79
211.337	10190.25
211.411	10290.4
211.485	10379.58
211.559	10477.52
211.633	10566.4
211.707	10616.18
211.781	10711.16
211.855	10764.36
211.929	10856
212.003	10930.77
212.077	11021.51
212.151	11121.13
212.225	11223.58
212.299	11298.77
212.373	11374.43
212.447	11455.5
212.52	11562.73
212.594	11648.82
212.668	11743.33
212.742	11807.38
212.816	11892.21
212.89	11973.19
212.964	12060.38
213.038	12141.07
213.112	12234.39
213.186	12328.1
213.26	12391.87
213.333	12425.13
213.407	12510.88
213.481	12581.06
213.555	12671.54
213.629	12735.99
213.703	12796.44
213.777	12873.71
213.85	12921
213.924	13026.86
213.998	13099.31
214.072	13165.16
214.146	13222.82
214.219	13300.38
214.293	13375.87
214.367	13448.62
214.441	13525.94
214.515	13576.36
214.588	13616.09
214.662	13651.86
214.736	13705.51
214.81	13780.81
214.883	13862.56
214.957	13914.05
215.031	13975.32
215.105	14012.54
215.178	14078.53
215.252	14132.09
215.326	14172.1
215.4	14221.94
215.473	14235.97
215.547	14280.17
215.621	14333.34
215.694	14395.72
215.768	14424.31
215.842	14468.32
215.915	14508.13
215.989	14541.01
216.063	14591.34
216.136	14650.39
216.21	14701.19
216.284	14761.45
216.357	14821.75
216.431	14867.83
216.504	14939.18
216.578	15013.75
216.652	15082.92
216.725	15129.19
216.799	15190.41
216.873	15240.93
216.946	15292.79
217.02	15338.59
217.093	15385
217.167	15401.15
217.24	15438.55
217.314	15493.31
217.387	15536.36
217.461	15586
217.535	15653.53
217.608	15689.54
217.682	15743.09
217.755	15796.93
217.829	15838.28
217.902	15881.81
217.976	15926.05
218.049	15951.21
218.123	15975.41
218.196	16031.18
218.27	16079.04
218.343	16112.87
218.417	16153.89
218.49	16202.76
218.563	16273.76
218.637	16332.41
218.71	16415.12
218.784	16472.76
218.857	16529.78
218.931	16582.6
219.004	16635.95
219.077	16684.39
219.151	16746.23
219.224	16791.48
219.298	16841.22
219.371	16897.7
219.444	16930.81
219.518	16984.12
219.591	17038.43
219.665	17119.25
219.738	17165.23
219.811	17191.98
219.885	17250.25
219.958	17310.15
220.031	17353.38
220.105	17397.14
220.178	17435.69
220.251	17467.31
220.325	17512.32
220.398	17552.46
220.471	17606.39
220.544	17650.49
220.618	17679.93
220.691	17719.88
220.764	17758.24
220.838	17811.25
220.911	17852.26
220.984	17915.3
221.057	17957.18
221.131	18011.78
221.204	18024.69
221.277	18087.73
221.35	18171.72
221.424	18200.3
221.497	18241.46
221.57	18285.74
221.643	18332.44
221.716	18394.36
221.79	18428.72
221.863	18469.3
221.936	18513.35
222.009	18551.85
222.082	18585.2
222.155	18627.36
222.229	18677
222.302	18722.44
222.375	18762.2
222.448	18801.86
222.521	18838
222.594	18875.01
222.667	18893.47
222.74	18940.26
222.814	18970.23
222.887	18993.17
222.96	19041.94
223.033	19088.59
223.106	19128.78
223.179	19165.16
223.252	19189.31
223.325	19222.07
223.398	19252.82
223.471	19285.35
223.544	19312.14
223.617	19352.48
223.69	19383.9
223.763	19400.28
223.837	19440.13
223.91	19468.61
223.983	19469.43
224.056	19485.24
224.129	19515.21
224.202	19553.33
224.275	19567.16
224.348	19568.94
224.42	19586.78
224.493	19595.93
224.566	19604.8
224.639	19631.01
224.712	19643.74
224.785	19656.8
224.858	19673.33
224.931	19687.01
225.004	19692.79
225.077	19716.89
225.15	19706.72
225.223	19726.82
225.296	19776.6
225.369	19771.83
225.442	19770.24
225.514	19799.05
225.587	19818.81
225.66	19837.85
225.733	19853.32
225.806	19878.67
225.879	19905.22
225.952	19906.66
226.025	19931.53
226.097	19966.42
226.17	19983.39
226.243	19977.46
226.316	19987.87
226.389	20006.85
226.461	20030.08
226.534	20050.66
226.607	20052.2
226.68	20086.32
226.753	20103.24
226.825	20083.29
226.898	20108.73
226.971	20131.72
227.044	20153.16
227.117	20172.63
227.189	20194.17
227.262	20222.27
227.335	20240.1
227.407	20238.27
227.48	20256.49
227.553	20272.44
227.626	20265.06
227.698	20266.56
227.771	20285.64
227.844	20284.49
227.916	20294.32
227.989	20282.41
228.062	20289.26
228.134	20317.64
228.207	20325.54
228.28	20316
228.352	20316.1
228.425	20324.15
228.498	20336.15
228.57	20329.11
228.643	20343.28
228.716	20340.68
228.788	20329.79
228.861	20322.03
228.934	20335.81
229.006	20325.69
229.079	20321.59
229.151	20321.98
229.224	20316.49
229.296	20323.71
229.369	20354.36
229.442	20374.17
229.514	20370.17
229.587	20384.77
229.659	20368.58
229.732	20373.11
229.804	20394.51
229.877	20425.06
229.949	20431.76
230.022	20448.68
230.094	20445.88
230.167	20441.98
230.239	20425.88
230.312	20428.49
230.384	20458.56
230.457	20469.11
230.529	20490.65
230.602	20500.92
230.674	20504
230.747	20519.57
230.819	20524.82
230.892	20494.75
230.964	20490.94
231.037	20496.34
231.109	20489.16
231.181	20493.69
231.254	20485.98
231.326	20471.67
231.399	20465.59
231.471	20455.38
231.544	20438.17
231.616	20460.97
231.688	20463.38
231.761	20457.79
231.833	20442.27
231.905	20399.76
231.978	20381.98
232.05	20363.38
232.122	20347.81
232.195	20337.26
232.267	20348.2
232.339	20337.16
232.412	20348.1
232.484	20331.14
232.556	20321.11
232.629	20337.11
232.701	20343.76
232.773	20336.1
232.846	20324.39
232.918	20313.02
232.99	20305.3
233.062	20295.43
233.135	20278.85
233.207	20246.65
233.279	20248.15
233.351	20245.98
233.424	20240.78
233.496	20220.97
233.568	20233.35
233.64	20204.44
233.713	20193.5
233.785	20168.97
233.857	20159.72
233.929	20127.77
234.001	20137.02
234.074	20138.37
234.146	20104.06
234.218	20079.67
234.29	20054.18
234.362	20034.23
234.434	20002.32
234.507	19974.28
234.579	19947.15
234.651	19915.48
234.723	19917.22
234.795	19903.2
234.867	19884.06
234.939	19879.73
235.012	19871.49
235.084	19840.06
235.156	19832.5
235.228	19797.66
235.3	19772.16
235.372	19748.7
235.444	19749.71
235.516	19701.42
235.588	19683.25
235.66	19651.83
235.732	19620.03
235.804	19663.59
235.876	19661.37
235.948	19661.66
236.02	19644.36
236.092	19620.99
236.164	19605.38
236.236	19569.77
236.308	19534.64
236.38	19519.89
236.452	19488.23
236.524	19461.72
236.596	19457.77
236.668	19445
236.74	19435.7
236.812	19422.21
236.884	19401.78
236.956	19370.64
237.028	19337.92
237.1	19296.82
237.172	19288.19
237.244	19284.63
237.316	19219.71
237.388	19180.34
237.46	19140.39
237.532	19128.01
237.604	19090.76
237.675	19071.82
237.747	19065.22
237.819	19038.57
237.891	19011.63
237.963	18967.97
238.035	18940.5
238.107	18880.12
238.178	18863.88
238.25	18829.95
238.322	18820.75
238.394	18780.17
238.466	18751.98
238.538	18729.53
238.609	18711.5
238.681	18663.07
238.753	18623.65
238.825	18594.06
238.897	18562.36
238.968	18556.86
239.04	18513.97
239.112	18520.53
239.184	18481.49
239.255	18445.35
239.327	18415.91
239.399	18379.23
239.471	18376
239.542	18340.29
239.614	18324.1
239.686	18264.2
239.758	18242.95
239.829	18191.92
239.901	18172.74
239.973	18140.55
240.044	18121.41
240.116	18086.28
240.188	18060.84
240.259	18027.92
240.331	17991.54
240.403	17976.84
240.474	17918.96
240.546	17881.52
240.618	17824.65
240.689	17788.46
240.761	17751.06
240.833	17734.78
240.904	17700.13
240.976	17654.87
241.048	17635.84
241.119	17616.08
241.191	17592.27
241.262	17579.31
241.334	17548.32
241.405	17511.12
241.477	17472.27
241.549	17429.57
241.62	17405
241.692	17387.65
241.763	17375.6
241.835	17341.04
241.906	17306.59
241.978	17272.42
242.049	17254.3
242.121	17232.75
242.192	17217.91
242.264	17175.64
242.335	17130.05
242.407	17110.97
242.478	17068.75
242.55	17036.07
242.621	16996.36
242.693	16965.37
242.764	16916.26
242.836	16878.53
242.907	16860.31
242.979	16832.45
243.05	16808.35
243.122	16771.72
243.193	16732.35
243.264	16673.6
243.336	16639.24
243.407	16605.93
243.479	16591.57
243.55	16562.32
243.622	16533.54
243.693	16503.66
243.764	16490.31
243.836	16448.28
243.907	16407.7
243.978	16384.42
244.05	16363.36
244.121	16314.34
244.192	16287.93
244.264	16248.02
244.335	16213.46
244.407	16161.65
244.478	16139.91
244.549	16115.24
244.62	16072.63
244.692	16035.66
244.763	16012.86
244.834	15982.59
244.906	15953.72
244.977	15919.11
245.048	15899.06
245.119	15860.5
245.191	15823.34
245.262	15763.14
245.333	15751.96
245.405	15722.07
245.476	15695.03
245.547	15657.44
245.618	15643.12
245.689	15618.97
245.761	15597.38
245.832	15568.56
245.903	15540.12
245.974	15504.3
246.045	15466.18
246.117	15453.45
246.188	15413.44
246.259	15365.53
246.33	15333.96
246.401	15287.93
246.473	15246.57
246.544	15212.06
246.615	15199.62
246.686	15157.78
246.757	15145.34
246.828	15100.18
246.899	15082.54
246.97	15036.74
247.042	14999.14
247.113	14968.73
247.184	14952.05
247.255	14912.47
247.326	14882.93
247.397	14852.7
247.468	14831.06
247.539	14798.42
247.61	14759.38
247.681	14746.89
247.752	14736.96
247.823	14698.16
247.894	14681.24
247.965	14642.96
248.037	14590.95
248.108	14540.43
248.179	14515.7
248.25	14481.48
248.321	14459.64
248.392	14415.82
248.463	14414.47
248.534	14382.18
248.605	14360.39
248.675	14328.86
248.746	14310.4
248.817	14285.77
248.888	14259.49
248.959	14205.6
249.03	14184.49
249.101	14149.97
249.172	14107.94
249.243	14056.64
249.314	14039.24
249.385	14011.91
249.456	13988.14
249.527	13972.96
249.598	13947.31
249.669	13916.89
249.739	13899.64
249.81	13877.03
249.881	13847.57
249.952	13817.2
250.023	13790.5
250.094	13747.98
250.165	13711.63
250.235	13677.84
250.306	13655.9
250.377	13628.23
250.448	13612.57
250.519	13562.48
250.59	13556.94
250.66	13529.84
250.731	13526.28
250.802	13500.29
250.873	13471.13
250.944	13452.14
251.014	13422.63
251.085	13420.85
251.156	13403.74
251.227	13392.55
251.297	13386.43
251.368	13366.09
251.439	13347.82
251.51	13334.66
251.58	13296.43
251.651	13270.11
251.722	13261.19
251.792	13216.84
251.863	13185.51
251.934	13179.05
252.005	13186.18
252.075	13161.45
252.146	13151.62
252.217	13133.64
252.287	13122.26
252.358	13096.47
252.429	13086.92
252.499	13059.01
252.57	13040.98
252.641	13030.04
252.711	13000.25
252.782	12949.73
252.852	12950.6
252.923	12919.74
252.994	12902.15
253.064	12896.41
253.135	12859.58
253.205	12825.02
253.276	12822.47
253.347	12830.81
253.417	12798.89
253.488	12771.46
253.558	12743.6
253.629	12713.38
253.699	12696.75
253.77	12677.85
253.841	12660.35
253.911	12643.09
253.982	12624.87
254.052	12604.29
254.123	12583.75
254.193	12564.04
254.264	12590.45
254.334	12555.84
254.405	12528.03
254.475	12495.06
254.546	12473.56
254.616	12472.88
254.687	12458.95
254.757	12444.15
254.827	12411.52
254.898	12392.82
254.968	12371.08
255.039	12345.91
255.109	12341.87
255.18	12310.53
255.25	12267.05
255.321	12252.88
255.391	12216.06
255.461	12218.85
255.532	12176.19
255.602	12150.26
255.673	12106.25
255.743	12072.99
255.813	12025.75
255.884	12018.47
255.954	12006.67
256.024	12003.68
256.095	11975.82
256.165	11943.62
256.235	11925.78
256.306	11898.21
256.376	11895.13
256.446	11887.51
256.517	11881.92
256.587	11871.32
256.657	11852.95
256.728	11835.41
256.798	11818.88
256.868	11788.66
256.938	11755.45
257.009	11746.82
257.079	11729.27
257.149	11746.77
257.219	11707.87
257.29	11696.98
257.36	11662.71
257.43	11658.08
257.5	11624.78
257.571	11608.2
257.641	11598.13
257.711	11569.35
257.781	11550.03
257.852	11532.58
257.922	11492.19
257.992	11461.25
258.062	11435.75
258.132	11431.94
258.202	11414.98
258.273	11392.33
258.343	11401.58
258.413	11379.17
258.483	11360.23
258.553	11332.28
258.623	11295.02
258.693	11277.67
258.764	11275.26
258.834	11275.93
258.904	11254.63
258.974	11227.64
259.044	11206.73
259.114	11187.93
259.184	11169.81
259.254	11157.77
259.324	11116.13
259.394	11106.25
259.464	11109.86
259.535	11094.01
259.605	11068.27
259.675	11045.14
259.745	11032.95
259.815	11000.47
259.885	10980.85
259.955	10991.7
260.025	10968.04
260.095	10957.1
260.165	10947.66
260.235	10950.21
260.305	10918.21
260.375	10891.13
260.445	10895.95
260.515	10898.84
260.585	10896.57
260.655	10885.97
260.725	10878.22
260.795	10870.7
260.865	10874.79
260.934	10846.12
261.004	10832.2
261.074	10812.34
261.144	10808.44
261.214	10805.5
261.284	10794.23
261.354	10789.36
261.424	10754.18
261.494	10755.24
261.564	10741.12
261.634	10736.4
261.703	10698.14
261.773	10694.33
261.843	10682.77
261.913	10656.51
