Data from 20250703_urea_0.1M_MAYP1162681_22-51-05-367.txt Node
Date: Thu Jul 03 22:51:05 BST 2025
User: adleo
Spectrometer: MAYP116268
Trigger mode: 0
Integration Time (sec): 1.000000E0
Scans to average: 1
Electric dark correction enabled: true
Nonlinearity correction enabled: true
Boxcar width: 10
XAxis mode: Wavelengths
Number of Pixels in Spectrum: 2068
>>>>>Begin Spectral Data<<<<<
179.565	1370.12
179.642	1434.6
179.718	1486.16
179.795	1531.99
179.871	1569.99
179.948	1592.62
180.024	1615.11
180.101	1640.82
180.177	1656.89
180.254	1684.98
180.33	1711.16
180.407	1778.47
180.483	1885.94
180.56	1988.81
180.636	2085.97
180.712	2068.5
180.789	2082.54
180.865	2094.61
180.942	2103.84
181.018	2112.5
181.095	2129.96
181.171	2138.47
181.248	2140.19
181.324	2155.37
181.4	2163.22
181.477	2175.35
181.553	2191.33
181.63	2212.6
181.706	2227.4
181.782	2237.58
181.859	2236.63
181.935	2242.96
182.011	2237.86
182.088	2259.76
182.164	2280.37
182.24	2292.22
182.317	2306.3
182.393	2304.02
182.469	2317.58
182.546	2335.52
182.622	2343.42
182.698	2338.04
182.775	2350.32
182.851	2367.7
182.927	2363.08
183.003	2359.37
183.08	2354.8
183.156	2365.32
183.232	2364.56
183.308	2355.51
183.385	2363.6
183.461	2383.22
183.537	2382.83
183.613	2397.16
183.69	2384.88
183.766	2374.69
183.842	2385.11
183.918	2386.4
183.995	2401.49
184.071	2408.58
184.147	2399.78
184.223	2385.69
184.299	2399.5
184.375	2386.79
184.452	2392.27
184.528	2442.17
184.604	2451.4
184.68	2460.21
184.756	2466.73
184.832	2473.73
184.908	2480.77
184.985	2478.63
185.061	2462.45
185.137	2475.4
185.213	2462.93
185.289	2462.64
185.365	2457.4
185.441	2458.5
185.517	2474.74
185.593	2468.93
185.669	2466.84
185.745	2481.69
185.822	2502.15
185.898	2493.77
185.974	2506.34
186.05	2498.48
186.126	2463.34
186.202	2458.3
186.278	2454.58
186.354	2441.92
186.43	2448.35
186.506	2446.21
186.582	2448.92
186.658	2452.82
186.734	2426.26
186.81	2431.64
186.886	2434.88
186.962	2448.49
187.038	2442.21
187.114	2433.49
187.19	2441.58
187.266	2428.49
187.341	2426.59
187.417	2417.69
187.493	2416.83
187.569	2414.5
187.645	2408.17
187.721	2395.59
187.797	2402.5
187.873	2409.26
187.949	2406.07
188.025	2397.35
188.101	2400.45
188.176	2406.63
188.252	2401.35
188.328	2411.2
188.404	2408.87
188.48	2404.87
188.556	2395.06
188.632	2397.77
188.707	2399.63
188.783	2394.87
188.859	2388.59
188.935	2378.02
189.011	2386.4
189.086	2380.26
189.162	2374.64
189.238	2371.03
189.314	2368.93
189.39	2362.36
189.465	2352.56
189.541	2371.6
189.617	2354.23
189.693	2347.8
189.768	2349.14
189.844	2376
189.92	2368.19
189.996	2380.14
190.071	2395.47
190.147	2393.9
190.223	2399.62
190.298	2389.66
190.374	2377.62
190.45	2392.56
190.526	2401.94
190.601	2393.18
190.677	2396.85
190.753	2423.09
190.828	2428.76
190.904	2442.52
190.98	2458.18
191.055	2472.46
191.131	2459.18
191.207	2482.65
191.282	2495.59
191.358	2484.55
191.433	2469.21
191.509	2483.3
191.585	2477.68
191.66	2478.68
191.736	2486.15
191.811	2478.87
191.887	2496.77
191.963	2523.39
192.038	2529.49
192.114	2529.11
192.189	2538.49
192.265	2535.49
192.34	2513.43
192.416	2506.96
192.491	2503.05
192.567	2508.96
192.642	2511.82
192.718	2512.06
192.793	2502.15
192.869	2497.15
192.944	2499.72
193.02	2508.3
193.095	2513.68
193.171	2523.25
193.246	2522.2
193.322	2520.63
193.397	2521.68
193.473	2510.48
193.548	2491.05
193.624	2501.15
193.699	2501.15
193.775	2516.82
193.85	2514.49
193.925	2526.16
194.001	2531.01
194.076	2524.63
194.152	2510.72
194.227	2499.58
194.302	2492.96
194.378	2494.91
194.453	2490.06
194.529	2506.96
194.604	2490.01
194.679	2480.3
194.755	2457.07
194.83	2469.03
194.905	2468.98
194.981	2478.03
195.056	2467.7
195.131	2473.27
195.207	2467.27
195.282	2456.41
195.357	2433.98
195.433	2453.4
195.508	2441.21
195.583	2448.12
195.659	2462.07
195.734	2470.78
195.809	2471.74
195.884	2480.4
195.96	2481.54
196.035	2499.92
196.11	2492.49
196.185	2510.06
196.261	2516.92
196.336	2554.87
196.411	2539.1
196.486	2545.44
196.561	2539.58
196.637	2545.43
196.712	2561.73
196.787	2563.01
196.862	2582.87
196.937	2595.39
197.013	2599.25
197.088	2609.06
197.163	2632.46
197.238	2652.24
197.313	2651.72
197.388	2669.25
197.464	2702.41
197.539	2715.04
197.614	2704.37
197.689	2720.71
197.764	2737.82
197.839	2757.88
197.914	2747.44
197.989	2771.5
198.065	2785.89
198.14	2839.78
198.215	2871.04
198.29	2885.53
198.365	2904.07
198.44	2914.03
198.515	2945.54
198.59	2960.84
198.665	2993.36
198.74	3001.85
198.815	3003.23
198.89	3029.21
198.965	3061.26
199.04	3055.68
199.115	3072.7
199.19	3123.48
199.265	3125.72
199.34	3133.97
199.415	3173.62
199.49	3197.84
199.565	3209.24
199.64	3234.81
199.715	3230.03
199.79	3237.14
199.865	3243.77
199.94	3241.91
200.015	3276.45
200.09	3279.03
200.165	3290.05
200.24	3292.72
200.315	3338.23
200.39	3354.74
200.464	3362.28
200.539	3363.66
200.614	3385.28
200.689	3412
200.764	3421.12
200.839	3439.15
200.914	3446.17
200.989	3434.13
201.063	3449.02
201.138	3429.42
201.213	3430.62
201.288	3410.2
201.363	3419.07
201.438	3419.17
201.512	3434.38
201.587	3416.72
201.662	3422.16
201.737	3437.1
201.812	3452.14
201.886	3417.22
201.961	3429.35
202.036	3415.23
202.111	3412.51
202.186	3378.74
202.26	3359.41
202.335	3333.44
202.41	3331.58
202.485	3312.93
202.559	3291.99
202.634	3264.51
202.709	3277.14
202.784	3258.2
202.858	3262.73
202.933	3243.17
203.008	3237.45
203.082	3221.32
203.157	3225.95
203.232	3186.52
203.306	3168.81
203.381	3138.27
203.456	3116.57
203.53	3099.66
203.605	3087.27
203.68	3069.19
203.754	3069.52
203.829	3065.75
203.904	3056.17
203.978	3055.88
204.053	3079.97
204.127	3082.93
204.202	3100.72
204.277	3101.72
204.351	3112.84
204.426	3123.48
204.5	3141.84
204.575	3133.45
204.65	3169.53
204.724	3187.86
204.799	3226.44
204.873	3249.25
204.948	3279.7
205.022	3302.6
205.097	3327.33
205.171	3378.29
205.246	3429.82
205.32	3476.96
205.395	3522.52
205.469	3559.07
205.544	3610.76
205.618	3639.9
205.693	3708.69
205.767	3749.77
205.842	3831.2
205.916	3886.72
205.991	3938.62
206.065	4005.98
206.14	4088.1
206.214	4153.68
206.289	4218.07
206.363	4306.7
206.438	4389.44
206.512	4477.58
206.586	4586.34
206.661	4682.63
206.735	4752.25
206.81	4844.85
206.884	4952.58
206.958	5028.96
207.033	5143.69
207.107	5255.66
207.181	5391.88
207.256	5487.47
207.33	5616.61
207.405	5734.06
207.479	5861.33
207.553	5982.28
207.628	6075.79
207.702	6205.38
207.776	6316.05
207.851	6433.94
207.925	6569.56
207.999	6685.24
208.073	6805.45
208.148	6928.53
208.222	7038.56
208.296	7199.73
208.371	7341.98
208.445	7481.82
208.519	7646.06
208.593	7789.81
208.668	7911.44
208.742	8043.89
208.816	8179.27
208.89	8323.32
208.965	8459.96
209.039	8602.64
209.113	8752.98
209.187	8909.25
209.261	9038.67
209.336	9196.85
209.41	9351.01
209.484	9483
209.558	9646.29
209.632	9792.16
209.707	9936.59
209.781	10103.24
209.855	10256.82
209.929	10406.76
210.003	10545.37
210.077	10679.21
210.151	10866.9
210.226	11043.55
210.3	11205.53
210.374	11359.87
210.448	11492.06
210.522	11635.11
210.596	11778.01
210.67	11915.99
210.744	12106.23
210.818	12269.91
210.892	12428.54
210.966	12556.41
211.041	12700.06
211.115	12815.45
211.189	12966.38
211.263	13117.35
211.337	13239.31
211.411	13373.9
211.485	13493.93
211.559	13628.76
211.633	13748.12
211.707	13832.14
211.781	13958.97
211.855	14045.84
211.929	14164.86
212.003	14264.02
212.077	14390.26
212.151	14515.07
212.225	14646.13
212.299	14736.47
212.373	14834.75
212.447	14934.49
212.52	15076.39
212.594	15192.42
212.668	15315.53
212.742	15413.43
212.816	15508.77
212.89	15607.24
212.964	15713.81
213.038	15818.16
213.112	15928.83
213.186	16049.71
213.26	16129.05
213.333	16174.55
213.407	16275.87
213.481	16368.41
213.555	16482.64
213.629	16563.27
213.703	16651.9
213.777	16752.87
213.85	16831.62
213.924	16966.23
213.998	17063.34
214.072	17139.63
214.146	17213.9
214.219	17301.27
214.293	17388.16
214.367	17476.55
214.441	17580.98
214.515	17653.99
214.588	17715.92
214.662	17763.68
214.736	17821.03
214.81	17904.16
214.883	17996.31
214.957	18062.28
215.031	18126.66
215.105	18168.25
215.178	18229.17
215.252	18292.59
215.326	18325.16
215.4	18368.44
215.473	18380.87
215.547	18427.71
215.621	18483.08
215.694	18554.11
215.768	18597.87
215.842	18642.59
215.915	18682.97
215.989	18711.07
216.063	18754.63
216.136	18819.88
216.21	18887.11
216.284	18960.55
216.357	19018.95
216.431	19073.84
216.504	19142.13
216.578	19224.68
216.652	19305.4
216.725	19365.05
216.799	19426.83
216.873	19489.24
216.946	19567.21
217.02	19623.31
217.093	19673.33
217.167	19710.53
217.24	19746.24
217.314	19786.29
217.387	19833.66
217.461	19879.39
217.535	19948.93
217.608	19978.76
217.682	20013.79
217.755	20073.46
217.829	20109.17
217.902	20171
217.976	20218.46
218.049	20255.38
218.123	20278.9
218.196	20327.38
218.27	20362.99
218.343	20383.04
218.417	20428.54
218.49	20456.97
218.563	20512.87
218.637	20558.71
218.71	20624.83
218.784	20677.22
218.857	20737.27
218.931	20788.59
219.004	20843.1
219.077	20890.09
219.151	20947.2
219.224	20990.05
219.298	21024.51
219.371	21085.43
219.444	21103.07
219.518	21139.17
219.591	21181.29
219.665	21266.66
219.738	21308.97
219.811	21341.8
219.885	21402.43
219.958	21450.72
220.031	21485.86
220.105	21522.25
220.178	21555.56
220.251	21581.88
220.325	21627.81
220.398	21670.81
220.471	21710.96
220.544	21756.99
220.618	21785.82
220.691	21827.99
220.764	21871.57
220.838	21914.47
220.911	21936.02
220.984	21995.16
221.057	22039.36
221.131	22079.81
221.204	22070.21
221.277	22117.36
221.35	22180.32
221.424	22203.55
221.497	22235.08
221.57	22278.95
221.643	22329.18
221.716	22378.16
221.79	22404.96
221.863	22419.33
221.936	22443.19
222.009	22473.08
222.082	22506.88
222.155	22524.14
222.229	22569.12
222.302	22605.95
222.375	22626.44
222.448	22663.08
222.521	22681.93
222.594	22697.65
222.667	22704.01
222.74	22740.36
222.814	22757
222.887	22761.34
222.96	22797.54
223.033	22827
223.106	22856.32
223.179	22875.36
223.252	22884.81
223.325	22902.41
223.398	22925.36
223.471	22940.6
223.544	22944.6
223.617	22950.82
223.69	22965.76
223.763	22959.83
223.837	22970.39
223.91	22991.13
223.983	22994.6
224.056	22996.53
224.129	23016.44
224.202	23034.57
224.275	23041.66
224.348	23036.64
224.42	23042.04
224.493	23027.77
224.566	23020.3
224.639	23026.18
224.712	23014.85
224.785	23021.11
224.858	23021.11
224.931	23019.14
225.004	23012.34
225.077	23027.14
225.15	23003.76
225.223	23011.28
225.296	23037.99
225.369	23022.8
225.442	23017.79
225.514	23013.74
225.587	23019.67
225.66	23024.93
225.733	23031.39
225.806	23024.49
225.879	23019.77
225.952	23006.17
226.025	23012.2
226.097	23031.68
226.17	23022.57
226.243	23000.72
226.316	22989.97
226.389	22992.96
226.461	22998.79
226.534	23005.74
226.607	22996.05
226.68	23010.37
226.753	23006.51
226.825	22977.09
226.898	22988.57
226.971	22976.85
227.044	22960.46
227.117	22959.98
227.189	22952.7
227.262	22956.36
227.335	22952.07
227.407	22939.05
227.48	22942.09
227.553	22948.5
227.626	22931.63
227.698	22930.08
227.771	22940.69
227.844	22925.7
227.916	22924.06
227.989	22898.74
228.062	22884.28
228.134	22898.79
228.207	22904.05
228.28	22876.23
228.352	22869.05
228.425	22861.96
228.498	22875.02
228.57	22860.66
228.643	22862.54
228.716	22856.22
228.788	22833.66
228.861	22814.42
228.934	22825.56
229.006	22812.4
229.079	22795.38
229.151	22783.03
229.224	22742.39
229.296	22726.63
229.369	22741.67
229.442	22746.54
229.514	22735.4
229.587	22737.81
229.659	22708.84
229.732	22690.37
229.804	22707.87
229.877	22723.64
229.949	22723.01
230.022	22721.85
230.094	22715.2
230.167	22700.5
230.239	22664.24
230.312	22652.72
230.384	22674.03
230.457	22658.6
230.529	22654.79
230.602	22651.56
230.674	22633.43
230.747	22644.91
230.819	22644.04
230.892	22592.12
230.964	22569.65
231.037	22556.06
231.109	22533.83
231.181	22521.1
231.254	22483.17
231.326	22456.26
231.399	22431.39
231.471	22397.35
231.544	22358.92
231.616	22355.74
231.688	22344.61
231.761	22332.17
231.833	22319.59
231.905	22278.22
231.978	22264.1
232.05	22230.59
232.122	22200.51
232.195	22170.96
232.267	22167.68
232.339	22135.72
232.412	22143.05
232.484	22118.08
232.556	22095.09
232.629	22109.31
232.701	22106.27
232.773	22101.88
232.846	22080
232.918	22064.33
232.99	22056.86
233.062	22035.17
233.135	22012.7
233.207	21968.89
233.279	21952.69
233.351	21929.41
233.424	21891.52
233.496	21853.92
233.568	21866.89
233.64	21827.08
233.713	21809.72
233.785	21781.14
233.857	21765.76
233.929	21718.43
234.001	21710.81
234.074	21702.67
234.146	21650.32
234.218	21616.14
234.29	21582.4
234.362	21546.78
234.434	21490.34
234.507	21442.09
234.579	21394.71
234.651	21364.2
234.723	21346.61
234.795	21330.32
234.867	21300.73
234.939	21299.42
235.012	21274.46
235.084	21241.68
235.156	21224.91
235.228	21190.88
235.3	21151.89
235.372	21124.8
235.444	21116.85
235.516	21057.66
235.588	21023.83
235.66	20994.58
235.732	20959.39
235.804	20998.72
235.876	20981.57
235.948	20981.13
236.02	20950.19
236.092	20927.93
236.164	20897.85
236.236	20869.08
236.308	20823.34
236.38	20790.19
236.452	20743.15
236.524	20722.95
236.596	20712.78
236.668	20688.54
236.74	20661.27
236.812	20630.33
236.884	20602.13
236.956	20566.13
237.028	20529.84
237.1	20499.87
237.172	20484.11
237.244	20460.78
237.316	20383.96
237.388	20340.01
237.46	20285.21
237.532	20276.25
237.604	20230.27
237.675	20214.56
237.747	20188.1
237.819	20151.43
237.891	20115.48
237.963	20073.84
238.035	20026.04
238.107	19948.35
238.178	19930.28
238.25	19893.32
238.322	19890.67
238.394	19845.46
238.466	19806.57
238.538	19778.67
238.609	19749.03
238.681	19701.42
238.753	19655.35
238.825	19628.56
238.897	19607.16
238.968	19599.35
239.04	19551.07
239.112	19559.6
239.184	19522.78
239.255	19480.13
239.327	19447.56
239.399	19418.64
239.471	19401.63
239.542	19384.76
239.614	19368.38
239.686	19299.23
239.758	19276.48
239.829	19220.97
239.901	19193.35
239.973	19160.2
240.044	19139.62
240.116	19097.79
240.188	19055.48
240.259	19028.11
240.331	18983.78
240.403	18945.56
240.474	18886.53
240.546	18836.07
240.618	18775.55
240.689	18730.59
240.761	18698.68
240.833	18687.41
240.904	18654.4
240.976	18610.02
241.048	18577.63
241.119	18543.61
241.191	18526.94
241.262	18511.47
241.334	18472.1
241.405	18431.33
241.477	18384.15
241.549	18341.74
241.62	18311
241.692	18287.57
241.763	18264.88
241.835	18230.47
241.906	18208.64
241.978	18162.91
242.049	18149.65
242.121	18122.23
242.192	18099.78
242.264	18048.93
242.335	17990.48
242.407	17971.35
242.478	17933.76
242.55	17894.87
242.621	17851.25
242.693	17810.92
242.764	17768.27
242.836	17733.81
242.907	17709.81
242.979	17690.1
243.05	17663.84
243.122	17636.85
243.193	17589.57
243.264	17521.48
243.336	17471.69
243.407	17439.93
243.479	17422.1
243.55	17393.67
243.622	17362.73
243.693	17322.83
243.764	17303.74
243.836	17265.57
243.907	17210.44
243.978	17177.14
244.05	17146.68
244.121	17092.6
244.192	17068.84
244.264	17012.6
244.335	16981.08
244.407	16926.19
244.478	16892.98
244.549	16848.11
244.62	16793.56
244.692	16759.05
244.763	16746.9
244.834	16716.59
244.906	16667.67
244.977	16643.67
245.048	16617.02
245.119	16578.56
245.191	16535.61
245.262	16484.09
245.333	16474.21
245.405	16440.91
245.476	16417.15
245.547	16387.07
245.618	16375.6
245.689	16340.22
245.761	16315.84
245.832	16289.28
245.903	16275.45
245.974	16248.12
246.045	16212.26
246.117	16198.72
246.188	16152.44
246.259	16106.08
246.33	16066.99
246.401	16036.33
246.473	15993.68
246.544	15948.95
246.615	15920.37
246.686	15876.36
246.757	15859.49
246.828	15806.66
246.899	15796.35
246.97	15743.47
247.042	15702.21
247.113	15673.15
247.184	15666.31
247.255	15627.12
247.326	15582.15
247.397	15543.59
247.468	15515.15
247.539	15487.82
247.61	15443.43
247.681	15434.22
247.752	15415.81
247.823	15375.03
247.894	15346.3
247.965	15299.11
248.037	15271.05
248.108	15225.79
248.179	15200.29
248.25	15173.2
248.321	15149.58
248.392	15097.86
248.463	15097.48
248.534	15063.83
248.605	15040.21
248.675	14998.47
248.746	14976.78
248.817	14954.22
248.888	14931.81
248.959	14881.48
249.03	14863.02
249.101	14835.3
249.172	14796.26
249.243	14746.41
249.314	14744.39
249.385	14717.63
249.456	14695.99
249.527	14661.28
249.598	14644.22
249.669	14615.01
249.739	14584.06
249.81	14567.77
249.881	14533.83
249.952	14501.29
250.023	14472.32
250.094	14431.25
250.165	14393.31
250.235	14358.22
250.306	14336.38
250.377	14298.11
250.448	14275.64
250.519	14228.5
250.59	14225.08
250.66	14193.4
250.731	14185.4
250.802	14149.1
250.873	14120.95
250.944	14098.29
251.014	14063.15
251.085	14060.07
251.156	14041.36
251.227	14029.46
251.297	14016.54
251.368	14012.58
251.439	14000.73
251.51	13990.89
251.58	13954.21
251.651	13928.46
251.722	13922.87
251.792	13882.72
251.863	13853.79
251.934	13846.66
252.005	13857.07
252.075	13821.01
252.146	13809.15
252.217	13796.91
252.287	13788.38
252.358	13764.71
252.429	13759.36
252.499	13735.83
252.57	13712.98
252.641	13700.98
252.711	13676.59
252.782	13636.38
252.852	13620.91
252.923	13583.55
252.994	13565.61
253.064	13555.88
253.135	13520.4
253.205	13480.19
253.276	13471.85
253.347	13469.83
253.417	13440.71
253.488	13402.48
253.558	13378.14
253.629	13357.17
253.699	13341.16
253.77	13325.26
253.841	13301.1
253.911	13278.21
253.982	13262.01
254.052	13236.99
254.123	13214.04
254.193	13191.92
254.264	13206.04
254.334	13176.2
254.405	13154.56
254.475	13114.69
254.546	13089.67
254.616	13086.06
254.687	13074.25
254.757	13059.83
254.827	13034.14
254.898	13016.25
254.968	12994.56
255.039	12966.12
255.109	12952.43
255.18	12917.43
255.25	12872.94
255.321	12858.91
255.391	12825.7
255.461	12821.41
255.532	12781.15
255.602	12753.19
255.673	12707.64
255.743	12677.7
255.813	12622.22
255.884	12611.33
255.954	12606.8
256.024	12612.15
256.095	12584.96
256.165	12547.12
256.235	12532.37
256.306	12505.81
256.376	12494.14
256.446	12480.45
256.517	12466.33
256.587	12457.46
256.657	12435.96
256.728	12421.31
256.798	12402.12
256.868	12377.34
256.938	12346.49
257.009	12337.67
257.079	12333.09
257.149	12351.31
257.219	12311.93
257.29	12314.92
257.36	12273.71
257.43	12264.4
257.5	12215.77
257.571	12193.93
257.641	12189.21
257.711	12150.21
257.781	12135.22
257.852	12119.26
257.922	12085.62
257.992	12066.72
258.062	12043.49
258.132	12033.22
258.202	12007.97
258.273	11988.69
258.343	11990.32
258.413	11967.48
258.483	11944.15
258.553	11909.88
258.623	11873.29
258.693	11850.44
258.764	11847.55
258.834	11850.69
258.904	11825.91
258.974	11802
259.044	11784.84
259.114	11767.73
259.184	11762.48
259.254	11743.83
259.324	11699.05
259.394	11686.52
259.464	11691
259.535	11666.76
259.605	11644.63
259.675	11622.13
259.745	11608.44
259.815	11581.3
259.885	11551.81
259.955	11567.47
260.025	11540.05
260.095	11525.21
260.165	11516.87
260.235	11516.43
260.305	11486.6
260.375	11455.95
260.445	11464.53
260.515	11463.42
260.585	11466.89
260.655	11440.48
260.725	11433.73
260.795	11426.6
260.865	11432.67
260.934	11402.79
261.004	11395.03
261.074	11379.31
261.144	11383.17
261.214	11382.3
261.284	11359.17
261.354	11362.21
261.424	11332.71
261.494	11334.73
261.564	11314.25
261.634	11306.44
261.703	11265.62
261.773	11253.38
261.843	11244.9
