Data from 20250703_urea_0.1M_MAYP1162681_12-11-05-411.txt Node
Date: Thu Jul 03 12:11:05 BST 2025
User: adleo
Spectrometer: MAYP116268
Trigger mode: 0
Integration Time (sec): 1.000000E0
Scans to average: 1
Electric dark correction enabled: true
Nonlinearity correction enabled: true
Boxcar width: 10
XAxis mode: Wavelengths
Number of Pixels in Spectrum: 2068
>>>>>Begin Spectral Data<<<<<
179.565	1133.57
179.642	1182.29
179.718	1223.43
179.795	1259.13
179.871	1285.28
179.948	1300.36
180.024	1319.72
180.101	1344.29
180.177	1357.3
180.254	1380.24
180.33	1399.13
180.407	1446.6
180.483	1536.44
180.56	1621.57
180.636	1698.67
180.712	1685.74
180.789	1693.01
180.865	1706.93
180.942	1714.86
181.018	1725.74
181.095	1736.72
181.171	1740
181.248	1743.33
181.324	1756.5
181.4	1762.82
181.477	1776.5
181.553	1789.14
181.63	1808.44
181.706	1821.8
181.782	1828.97
181.859	1826.93
181.935	1835.05
182.011	1832.49
182.088	1844.13
182.164	1862.06
182.24	1877.03
182.317	1888.1
182.393	1886.58
182.469	1899.85
182.546	1912.06
182.622	1915.01
182.698	1911.68
182.775	1924.99
182.851	1937.31
182.927	1928.84
183.003	1924.61
183.08	1918.91
183.156	1929.7
183.232	1927.37
183.308	1914.44
183.385	1925.14
183.461	1942.01
183.537	1941.82
183.613	1953.19
183.69	1947.77
183.766	1934.74
183.842	1940.68
183.918	1943.91
183.995	1958.65
184.071	1960.51
184.147	1955.09
184.223	1947.01
184.299	1958.8
184.375	1947.86
184.452	1954.19
184.528	2001.45
184.604	2012.62
184.68	2023.03
184.756	2028.36
184.832	2034.59
184.908	2038.58
184.985	2035.26
185.061	2018.71
185.137	2026.65
185.213	2016.33
185.289	2017.19
185.365	2015.72
185.441	2014.81
185.517	2029.32
185.593	2025.04
185.669	2023.95
185.745	2033.27
185.822	2048.29
185.898	2039.68
185.974	2046.19
186.05	2039.34
186.126	2011.44
186.202	2006.07
186.278	2003.64
186.354	1994.7
186.43	1997.98
186.506	1998.74
186.582	1999.69
186.658	2007.2
186.734	1989.19
186.81	1992.47
186.886	1994.99
186.962	2003.4
187.038	2000.41
187.114	1989.65
187.19	1996.41
187.266	1986.33
187.341	1989.18
187.417	1982.67
187.493	1983.29
187.569	1986.38
187.645	1979.34
187.721	1964.22
187.797	1970.54
187.873	1974.82
187.949	1969.02
188.025	1963.12
188.101	1964.17
188.176	1966.78
188.252	1962.88
188.328	1969.16
188.404	1969.06
188.48	1964.93
188.556	1960.17
188.632	1959.6
188.707	1962.31
188.783	1961.36
188.859	1957.89
188.935	1944.15
189.011	1951.23
189.086	1942.91
189.162	1936.78
189.238	1935.54
189.314	1933.69
189.39	1927.13
189.465	1920.66
189.541	1935.21
189.617	1920.85
189.693	1919
189.768	1922.57
189.844	1946.35
189.92	1938.94
189.996	1946.97
190.071	1958.91
190.147	1958.91
190.223	1968.75
190.298	1960.86
190.374	1946.59
190.45	1957.62
190.526	1968.32
190.601	1963.85
190.677	1963.47
190.753	1988.73
190.828	1992.44
190.904	2008.09
190.98	2024.49
191.055	2033.24
191.131	2026.21
191.207	2045.37
191.282	2055.4
191.358	2046.27
191.433	2031.85
191.509	2044.07
191.585	2040.46
191.66	2041.45
191.736	2046.49
191.811	2036.6
191.887	2053.73
191.963	2074.89
192.038	2079.41
192.114	2079.27
192.189	2079.55
192.265	2080.22
192.34	2060.23
192.416	2058.71
192.491	2053.76
192.567	2053.81
192.642	2055
192.718	2057.23
192.793	2047.01
192.869	2041.59
192.944	2044.73
193.02	2051.53
193.095	2055.05
193.171	2060.37
193.246	2059.47
193.322	2056.33
193.397	2056.47
193.473	2040.87
193.548	2025.55
193.624	2032.69
193.699	2033.55
193.775	2049.43
193.85	2049.58
193.925	2055.86
194.001	2053.91
194.076	2048.53
194.152	2038.21
194.227	2032.36
194.302	2019.86
194.378	2024.23
194.453	2022.47
194.529	2036.12
194.604	2022.95
194.679	2019.19
194.755	2000.98
194.83	2012.83
194.905	2012.21
194.981	2020.73
195.056	2013.36
195.131	2018.97
195.207	2016.4
195.282	2005.56
195.357	1988.67
195.433	2004.22
195.508	1995.09
195.583	2004.69
195.659	2019.15
195.734	2027.43
195.809	2028.33
195.884	2037.94
195.96	2038.03
196.035	2050.35
196.11	2046.4
196.185	2058.53
196.261	2059.95
196.336	2091.77
196.411	2078.59
196.486	2083.63
196.561	2079.69
196.637	2089.96
196.712	2104.56
196.787	2108.23
196.862	2122.73
196.937	2132.24
197.013	2135.67
197.088	2145.04
197.163	2166.98
197.238	2179.83
197.313	2182.02
197.388	2195.06
197.464	2223.46
197.539	2232.46
197.614	2227.13
197.689	2241.69
197.764	2255.54
197.839	2274.81
197.914	2265.81
197.989	2289.9
198.065	2301.98
198.14	2347.7
198.215	2376.59
198.29	2389.16
198.365	2401.49
198.44	2411.58
198.515	2437.38
198.59	2455.04
198.665	2480.27
198.74	2484.56
198.815	2488.42
198.89	2508.18
198.965	2534.95
199.04	2532.66
199.115	2550.85
199.19	2591.84
199.265	2589.89
199.34	2601.27
199.415	2630.62
199.49	2652.33
199.565	2657.67
199.64	2680.15
199.715	2679.38
199.79	2681.15
199.865	2687.29
199.94	2687.34
200.015	2715.88
200.09	2720.07
200.165	2728.46
200.24	2734.51
200.315	2774.85
200.39	2788.76
200.464	2793.05
200.539	2796.91
200.614	2812.49
200.689	2834.03
200.764	2842.61
200.839	2861.05
200.914	2865.24
200.989	2860.95
201.063	2875.25
201.138	2859.1
201.213	2859.87
201.288	2839.18
201.363	2847.29
201.438	2848.48
201.512	2864.48
201.587	2845.9
201.662	2854.48
201.737	2864.96
201.812	2874.78
201.886	2843.73
201.961	2855.18
202.036	2847.55
202.111	2843.17
202.186	2817.69
202.26	2803.82
202.335	2782.37
202.41	2783.51
202.485	2770.79
202.559	2753.4
202.634	2730.34
202.709	2743.72
202.784	2732.67
202.858	2739.24
202.933	2727.85
203.008	2729.14
203.082	2716.51
203.157	2728.09
203.232	2695.85
203.306	2686.46
203.381	2667.68
203.456	2661.2
203.53	2651.14
203.605	2649.42
203.68	2644.04
203.754	2658.37
203.829	2663.9
203.904	2665.9
203.978	2675.05
204.053	2703.12
204.127	2718.79
204.202	2746
204.277	2765.07
204.351	2793.43
204.426	2820.8
204.5	2847.82
204.575	2857.55
204.65	2912.16
204.724	2952.48
204.799	3009.39
204.873	3056.39
204.948	3107.9
205.022	3151.11
205.097	3209.02
205.171	3285.18
205.246	3359.85
205.32	3429.76
205.395	3503.54
205.469	3571.4
205.544	3654.63
205.618	3727.21
205.693	3829.85
205.767	3911.41
205.842	4021.23
205.916	4107.95
205.991	4205.84
206.065	4321.73
206.14	4442.28
206.214	4548.46
206.289	4656.9
206.363	4791.82
206.438	4913.66
206.512	5049.65
206.586	5204.95
206.661	5348.31
206.735	5468.74
206.81	5616.6
206.884	5776.56
206.958	5911.81
207.033	6080.44
207.107	6244.99
207.181	6431.17
207.256	6584.68
207.33	6760.98
207.405	6942.18
207.479	7131.45
207.553	7301.72
207.628	7457.85
207.702	7639.71
207.776	7810.59
207.851	7991.01
207.925	8184.59
207.999	8370.52
208.073	8559.08
208.148	8742.58
208.222	8921.94
208.296	9139.82
208.371	9346.53
208.445	9546.26
208.519	9764.48
208.593	9971.51
208.668	10161.15
208.742	10354.29
208.816	10548.32
208.89	10757.36
208.965	10950.88
209.039	11158.81
209.113	11374.83
209.187	11589.93
209.261	11792.43
209.336	12016.82
209.41	12240.16
209.484	12436.53
209.558	12657.48
209.632	12864.98
209.707	13074.9
209.781	13286.71
209.855	13494.08
209.929	13697.31
210.003	13896
210.077	14094.36
210.151	14331.47
210.226	14562.56
210.3	14781.83
210.374	14997.78
210.448	15205.14
210.522	15407.11
210.596	15599.77
210.67	15800.18
210.744	16037.9
210.818	16246.6
210.892	16441.66
210.966	16607.17
211.041	16806.13
211.115	16988.16
211.189	17182.92
211.263	17367.03
211.337	17542.69
211.411	17717.83
211.485	17887.51
211.559	18072
211.633	18232.77
211.707	18372.76
211.781	18536.03
211.855	18665.91
211.929	18818.58
212.003	18952.35
212.077	19115.29
212.151	19284.92
212.225	19438.65
212.299	19569.78
212.373	19711.08
212.447	19850.06
212.52	20030.4
212.594	20168.28
212.668	20316.57
212.742	20447.7
212.816	20589.88
212.89	20717.01
212.964	20855.77
213.038	20994.33
213.112	21139.51
213.186	21297.4
213.26	21407.73
213.333	21497.23
213.407	21630.99
213.481	21751.54
213.555	21886.74
213.629	21994.19
213.703	22106.51
213.777	22230.45
213.85	22344.03
213.924	22494.69
213.998	22612.33
214.072	22714.4
214.146	22817.57
214.219	22920.42
214.293	23028.27
214.367	23133.63
214.441	23254.13
214.515	23352.88
214.588	23429.36
214.662	23489.44
214.736	23565.25
214.81	23664.4
214.883	23765.91
214.957	23843.21
215.031	23927.07
215.105	23987.74
215.178	24056.85
215.252	24127.51
215.326	24178.93
215.4	24239.03
215.473	24266.48
215.547	24331.89
215.621	24394.27
215.694	24475.17
215.768	24520.42
215.842	24567.56
215.915	24616.91
215.989	24663.08
216.063	24720.88
216.136	24783.99
216.21	24847.14
216.284	24919.28
216.357	24980.95
216.431	25031.8
216.504	25101.24
216.578	25182.89
216.652	25248.75
216.725	25311.77
216.799	25374.51
216.873	25438.4
216.946	25485.41
217.02	25538.34
217.093	25579.46
217.167	25603.93
217.24	25627.63
217.314	25684.24
217.387	25732.17
217.461	25772.03
217.535	25819.58
217.608	25847.28
217.682	25891.3
217.755	25938.85
217.829	25965.35
217.902	25996.15
217.976	26033.17
218.049	26055.57
218.123	26067.26
218.196	26102.74
218.27	26128.47
218.343	26135.18
218.417	26155.45
218.49	26186.83
218.563	26220.63
218.637	26253.17
218.71	26311.2
218.784	26347.61
218.857	26373.87
218.931	26398.35
219.004	26425.58
219.077	26455.08
219.151	26486.52
219.224	26507.86
219.298	26539.58
219.371	26580.54
219.444	26599.22
219.518	26628.15
219.591	26651.66
219.665	26704.3
219.738	26723.13
219.811	26723.86
219.885	26763.65
219.958	26800.93
220.031	26812.81
220.105	26837.58
220.178	26855.64
220.251	26865.4
220.325	26888.73
220.398	26904.37
220.471	26927.36
220.544	26943.35
220.618	26951.03
220.691	26971.5
220.764	26982.22
220.838	26987.97
220.911	26974.54
220.984	26999.95
221.057	27007.87
221.131	27007.43
221.204	26972.42
221.277	27000.24
221.35	27046.55
221.424	27047.42
221.497	27048.39
221.57	27050.42
221.643	27056.45
221.716	27064.47
221.79	27058.77
221.863	27062.06
221.936	27058
222.009	27055.73
222.082	27062.83
222.155	27049.26
222.229	27047.76
222.302	27043.32
222.375	27034.48
222.448	27047.47
222.521	27037.18
222.594	27030.33
222.667	27023.47
222.74	27031.49
222.814	27017.28
222.887	27001.44
222.96	26990.24
223.033	26984.63
223.106	26981.93
223.179	26973.96
223.252	26960.34
223.325	26949.76
223.398	26928.22
223.471	26919.14
223.544	26903.93
223.617	26881.52
223.69	26872.97
223.763	26848.15
223.837	26841
223.91	26835.45
223.983	26792.57
224.056	26768.52
224.129	26751.95
224.202	26751.28
224.275	26725.59
224.348	26696.91
224.42	26662.43
224.493	26633.16
224.566	26600.28
224.639	26582.99
224.712	26555.13
224.785	26534.89
224.858	26506.89
224.931	26483.37
225.004	26455.03
225.077	26431.28
225.15	26391.74
225.223	26355.58
225.296	26345.97
225.369	26303.53
225.442	26256.31
225.514	26236.61
225.587	26218.65
225.66	26193.45
225.733	26153.43
225.806	26140.97
225.879	26116.21
225.952	26084.11
226.025	26058.38
226.097	26051.91
226.17	26020.05
226.243	25971.05
226.316	25933.93
226.389	25903.71
226.461	25877.26
226.534	25836.23
226.607	25806.3
226.68	25794.28
226.753	25775.08
226.825	25725.89
226.898	25703.69
226.971	25684.43
227.044	25661.16
227.117	25620.77
227.189	25582.73
227.262	25569.7
227.335	25535.87
227.407	25498.95
227.48	25461.88
227.553	25430.47
227.626	25382.54
227.698	25351.07
227.771	25333.12
227.844	25286.12
227.916	25258.42
227.989	25207.08
228.062	25181.55
228.134	25166.3
228.207	25129.82
228.28	25098.41
228.352	25068.25
228.425	25042.2
228.498	25015.8
228.57	24967.26
228.643	24954.81
228.716	24930.64
228.788	24887.4
228.861	24843.64
228.934	24828.2
229.006	24797.23
229.079	24762.49
229.151	24723.9
229.224	24672.28
229.296	24629.44
229.369	24635.28
229.442	24614.43
229.514	24581.58
229.587	24566.2
229.659	24511.58
229.732	24484.67
229.804	24455.48
229.877	24445.88
229.949	24420.84
230.022	24403.71
230.094	24374.77
230.167	24332.51
230.239	24289.73
230.312	24246.27
230.384	24237.39
230.457	24197.31
230.529	24172.08
230.602	24139.04
230.674	24117.62
230.747	24103.59
230.819	24087.24
230.892	24018.99
230.964	23991.06
231.037	23961.45
231.109	23908.06
231.181	23884.91
231.254	23842.08
231.326	23804.46
231.399	23755.07
231.471	23707.81
231.544	23650.94
231.616	23624.23
231.688	23591
231.761	23549.43
231.833	23517.6
231.905	23455.2
231.978	23418.16
232.05	23372.11
232.122	23354.75
232.195	23315.74
232.267	23289.46
232.339	23251.8
232.412	23229.91
232.484	23174.4
232.556	23130.86
232.629	23121.66
232.701	23087.9
232.773	23050
232.846	23013.79
232.918	22987.37
232.99	22952.51
233.062	22921.07
233.135	22884.96
233.207	22831.92
233.279	22807.62
233.351	22770.94
233.424	22737.24
233.496	22688.59
233.568	22672.34
233.64	22609.76
233.713	22564.73
233.785	22526.89
233.857	22486.15
233.929	22427.67
234.001	22415.91
234.074	22393.35
234.146	22335.35
234.218	22299.15
234.29	22263.48
234.362	22211.08
234.434	22146.09
234.507	22094.56
234.579	22039.27
234.651	21999.45
234.723	21976.94
234.795	21931.39
234.867	21915.09
234.939	21893.31
235.012	21860.72
235.084	21829.58
235.156	21796.56
235.228	21752.41
235.3	21705.85
235.372	21670.47
235.444	21647.86
235.516	21578.93
235.588	21536.76
235.66	21498.68
235.732	21441.61
235.804	21450.91
235.876	21426.48
235.948	21413.61
236.02	21380.06
236.092	21342.66
236.164	21307.14
236.236	21260.29
236.308	21215.42
236.38	21164.43
236.452	21108.76
236.524	21069.91
236.596	21046.49
236.668	21014
236.74	20968.85
236.812	20930.1
236.884	20894.53
236.956	20850.14
237.028	20808.36
237.1	20765.46
237.172	20739.44
237.244	20718.33
237.316	20641.94
237.388	20591.72
237.46	20536.05
237.532	20502.03
237.604	20451.81
237.675	20424.63
237.747	20391.86
237.819	20349.74
237.891	20301.6
237.963	20260.92
238.035	20217.99
238.107	20131.67
238.178	20103.33
238.25	20064.69
238.322	20045.22
238.394	19989.65
238.466	19952.59
238.538	19911.63
238.609	19877.17
238.681	19816.02
238.753	19775.2
238.825	19734.62
238.897	19698.77
238.968	19677.66
239.04	19626
239.112	19614
239.184	19554.59
239.255	19504.23
239.327	19470.01
239.399	19429.48
239.471	19394.59
239.542	19358.45
239.614	19335.61
239.686	19270.31
239.758	19254.27
239.829	19201.06
239.901	19168.39
239.973	19123.77
240.044	19098.85
240.116	19055.43
240.188	19022.95
240.259	18974.62
240.331	18929.56
240.403	18892.22
240.474	18835.11
240.546	18793.52
240.618	18736.8
240.689	18694.01
240.761	18659.46
240.833	18625.97
240.904	18583.8
240.976	18546.5
241.048	18507.03
241.119	18476.82
241.191	18446.94
241.262	18416.1
241.334	18374.22
241.405	18328.44
241.477	18285.79
241.549	18235.05
241.62	18198.81
241.692	18167.92
241.763	18141.51
241.835	18099.54
241.906	18062.52
241.978	18015.68
242.049	17989.47
242.121	17959.44
242.192	17936.6
242.264	17882.82
242.335	17827.88
242.407	17797.57
242.478	17747.54
242.55	17712.08
242.621	17666.39
242.693	17622.2
242.764	17570.01
242.836	17532.51
242.907	17514.01
242.979	17488.37
243.05	17465.91
243.122	17434.39
243.193	17389.19
243.264	17324.22
243.336	17290.87
243.407	17264.18
243.479	17236.7
243.55	17205.57
243.622	17172.85
243.693	17131.98
243.764	17117.43
243.836	17080.85
243.907	17047.35
243.978	17017.42
244.05	16982.14
244.121	16922.67
244.192	16899.1
244.264	16852.5
244.335	16812.83
244.407	16754.66
244.478	16718.03
244.549	16671.67
244.62	16630.03
244.692	16595.33
244.763	16576.34
244.834	16534.26
244.906	16485.78
244.977	16459.03
245.048	16439.41
245.119	16403.55
245.191	16359.31
245.262	16299.79
245.333	16281.13
245.405	16241.42
245.476	16201.41
245.547	16175.63
245.618	16159.19
245.689	16118.95
245.761	16086.7
245.832	16049.93
245.903	16027.76
245.974	15994.98
246.045	15955.65
246.117	15927.74
246.188	15882.72
246.259	15840.31
246.33	15803.82
246.401	15773.69
246.473	15724.1
246.544	15684
246.615	15654.4
246.686	15620.61
246.757	15604.22
246.828	15563.54
246.899	15553.28
246.97	15513.61
247.042	15471.67
247.113	15445.45
247.184	15443.04
247.255	15411.13
247.326	15382.74
247.397	15348.9
247.468	15322.01
247.539	15295.78
247.61	15263.34
247.681	15245.75
247.752	15237.03
247.823	15198.08
247.894	15171.47
247.965	15130.16
248.037	15082.2
248.108	15034.62
248.179	15008.69
248.25	14978.42
248.321	14948.82
248.392	14899.02
248.463	14888.85
248.534	14853.09
248.605	14838.14
248.675	14800.4
248.746	14773.17
248.817	14754.56
248.888	14727.23
248.959	14679.84
249.03	14658.58
249.101	14616.21
249.172	14580.59
249.243	14523.27
249.314	14510.45
249.385	14478.73
249.456	14466.34
249.527	14440.22
249.598	14427.73
249.669	14395.43
249.739	14373.64
249.81	14352.77
249.881	14314.01
249.952	14286.2
250.023	14260.51
250.094	14213.6
250.165	14173.69
250.235	14146.64
250.306	14114.59
250.377	14080.41
250.448	14065.56
250.519	14019
250.59	14017.98
250.66	13993.64
250.731	13983.85
250.802	13952.76
250.873	13935.94
250.944	13910.68
251.014	13882.67
251.085	13871.24
251.156	13850.08
251.227	13826.07
251.297	13813.64
251.368	13803.47
251.439	13782.25
251.51	13770.78
251.58	13737.33
251.651	13707.2
251.722	13695.96
251.792	13654.51
251.863	13625.97
251.934	13606.16
252.005	13608.23
252.075	13579.88
252.146	13558.19
252.217	13540.59
252.287	13533.56
252.358	13504.05
252.429	13495.18
252.499	13462.89
252.57	13440.52
252.641	13423.93
252.711	13402
252.782	13361.22
252.852	13354.42
252.923	13330.51
252.994	13301.44
253.064	13286.35
253.135	13251.93
253.205	13216.26
253.276	13209.56
253.347	13199.63
253.417	13169.98
253.488	13137.49
253.558	13110.59
253.629	13087.79
253.699	13067.21
253.77	13049.23
253.841	13023.1
253.911	13001.31
253.982	12987.38
254.052	12977.54
254.123	12954.89
254.193	12937.92
254.264	12958.31
254.334	12922.88
254.405	12893.71
254.475	12864.4
254.546	12836.01
254.616	12829.74
254.687	12811.96
254.757	12794.22
254.827	12768.72
254.898	12748.33
254.968	12731.65
255.039	12696.12
255.109	12682.48
255.18	12647.43
255.25	12600.96
255.321	12592.09
255.391	12558.01
255.461	12557.72
255.532	12504.65
255.602	12477.66
255.673	12439.24
255.743	12404.38
255.813	12358.4
255.884	12350.4
255.954	12343.12
256.024	12343.94
256.095	12322.58
256.165	12289.61
256.235	12273.42
256.306	12246.13
256.376	12236.73
256.446	12227.29
256.517	12215.52
256.587	12205.93
256.657	12197.88
256.728	12181.16
256.798	12155.75
256.868	12133.24
256.938	12102.1
257.009	12093.96
257.079	12090.29
257.149	12092.85
257.219	12051.2
257.29	12042.62
257.36	11994.47
257.43	11980.88
257.5	11944.58
257.571	11921.83
257.641	11914.89
257.711	11886.89
257.781	11879.9
257.852	11867.51
257.922	11819.6
257.992	11801.14
258.062	11778.63
258.132	11764.36
258.202	11747.3
258.273	11730.24
258.343	11728.26
258.413	11699.82
258.483	11686.33
258.553	11651.82
258.623	11620.2
258.693	11603.47
258.764	11600.58
258.834	11606.32
258.904	11586.99
258.974	11557.88
259.044	11534.6
259.114	11515.56
259.184	11495.08
259.254	11474.26
259.324	11439.41
259.394	11438.54
259.464	11437.44
259.535	11413.1
259.605	11387.22
259.675	11361.63
259.745	11348.32
259.815	11315.84
259.885	11289.67
259.955	11289.33
260.025	11260.95
260.095	11243.89
260.165	11231.5
260.235	11227.21
260.305	11200.66
260.375	11173.14
260.445	11185.53
260.515	11193.28
260.585	11194.88
260.655	11185.77
260.725	11179.31
260.795	11166.3
260.865	11164.9
260.934	11140.75
261.004	11135.12
261.074	11117.29
261.144	11119.65
261.214	11103.89
261.284	11086.01
261.354	11090.15
261.424	11065.04
261.494	11080.22
261.564	11061.43
261.634	11057.28
261.703	11023.12
261.773	11015.79
261.843	11003.07
