Data from 20250703_urea_0.1M_MAYP1162681_07-01-04-994.txt Node
Date: Fri Jul 04 07:01:04 BST 2025
User: adleo
Spectrometer: MAYP116268
Trigger mode: 0
Integration Time (sec): 1.000000E0
Scans to average: 1
Electric dark correction enabled: true
Nonlinearity correction enabled: true
Boxcar width: 10
XAxis mode: Wavelengths
Number of Pixels in Spectrum: 2068
>>>>>Begin Spectral Data<<<<<
179.565	1260.34
179.642	1313.35
179.718	1356.9
179.795	1399.01
179.871	1432.84
179.948	1452.21
180.024	1475.41
180.101	1498.58
180.177	1513.38
180.254	1534.93
180.33	1557.48
180.407	1616.31
180.483	1714.7
180.56	1809.92
180.636	1898.37
180.712	1883.49
180.789	1893.66
180.865	1904.35
180.942	1910.39
181.018	1920.85
181.095	1931.83
181.171	1937.45
181.248	1941.34
181.324	1960.04
181.4	1963.55
181.477	1974.16
181.553	1988.66
181.63	2010.01
181.706	2025.14
181.782	2032.27
181.859	2034.03
181.935	2038.64
182.011	2034.98
182.088	2052.1
182.164	2069.7
182.24	2080.78
182.317	2091.53
182.393	2090.77
182.469	2104.47
182.546	2120.35
182.622	2124.25
182.698	2121.4
182.775	2131.72
182.851	2144.85
182.927	2134.86
183.003	2134.91
183.08	2129.44
183.156	2140
183.232	2133.34
183.308	2123.92
183.385	2132.48
183.461	2150.99
183.537	2152.7
183.613	2166.35
183.69	2156.69
183.766	2146.94
183.842	2157.02
183.918	2164.02
183.995	2178.34
184.071	2182.76
184.147	2178.72
184.223	2168.54
184.299	2182.72
184.375	2169.83
184.452	2177.35
184.528	2226.93
184.604	2236.97
184.68	2250.24
184.756	2254.81
184.832	2260.09
184.908	2264.66
184.985	2265.28
185.061	2247.39
185.137	2258.38
185.213	2243.63
185.289	2244.77
185.365	2237.16
185.441	2234.16
185.517	2243.16
185.593	2238.35
185.669	2237.02
185.745	2244.49
185.822	2261.52
185.898	2253.95
185.974	2266.46
186.05	2261.08
186.126	2227.3
186.202	2220.69
186.278	2216.79
186.354	2207.55
186.43	2215.84
186.506	2212.65
186.582	2211.22
186.658	2219.45
186.734	2197.09
186.81	2199.76
186.886	2202.85
186.962	2218.17
187.038	2214.98
187.114	2207.98
187.19	2216.03
187.266	2208.75
187.341	2209.41
187.417	2200.14
187.493	2199.76
187.569	2200.95
187.645	2193.24
187.721	2180.63
187.797	2187.67
187.873	2189.71
187.949	2184.96
188.025	2175.87
188.101	2180.86
188.176	2187.14
188.252	2182.43
188.328	2190.32
188.404	2190.61
188.48	2186.66
188.556	2177.57
188.632	2177.05
188.707	2179.24
188.783	2173.48
188.859	2165.01
188.935	2155.26
189.011	2165.49
189.086	2158.12
189.162	2147.98
189.238	2144.03
189.314	2142.13
189.39	2136.76
189.465	2133.9
189.541	2149.6
189.617	2135.9
189.693	2131.77
189.768	2137.38
189.844	2163.61
189.92	2154.86
189.996	2164.56
190.071	2178.46
190.147	2177.98
190.223	2184.83
190.298	2178.84
190.374	2166.85
190.45	2180.55
190.526	2189.35
190.601	2185.35
190.677	2189.87
190.753	2218.05
190.828	2222.28
190.904	2239.56
190.98	2252.79
191.055	2261.73
191.131	2251.26
191.207	2272.05
191.282	2281.95
191.358	2268.63
191.433	2253.11
191.509	2270.09
191.585	2266.14
191.66	2266.95
191.736	2275.23
191.811	2267.9
191.887	2284.75
191.963	2308.97
192.038	2313.02
192.114	2313.73
192.189	2318.54
192.265	2312.78
192.34	2291.98
192.416	2291.07
192.491	2284.84
192.567	2288.93
192.642	2290.12
192.718	2290.69
192.793	2280.46
192.869	2271.71
192.944	2273.94
193.02	2282.18
193.095	2282.79
193.171	2292.65
193.246	2290.74
193.322	2289.84
193.397	2290.74
193.473	2273.56
193.548	2254.71
193.624	2262.18
193.699	2261.04
193.775	2276.42
193.85	2278.42
193.925	2288.65
194.001	2289.46
194.076	2282.7
194.152	2272.8
194.227	2262.81
194.302	2253.77
194.378	2254.15
194.453	2253.91
194.529	2267.24
194.604	2250.53
194.679	2246.91
194.755	2224.79
194.83	2235.7
194.905	2230.98
194.981	2238.79
195.056	2234.6
195.131	2240.26
195.207	2235.03
195.282	2223.99
195.357	2203.04
195.433	2217.79
195.508	2204.99
195.583	2212.65
195.659	2227.46
195.734	2232.79
195.809	2235.12
195.884	2245.3
195.96	2247.53
196.035	2267.14
196.11	2263.28
196.185	2274.66
196.261	2276.8
196.336	2310.87
196.411	2298.88
196.486	2304.11
196.561	2298.92
196.637	2307.49
196.712	2325.53
196.787	2330.53
196.862	2347.18
196.937	2358.27
197.013	2361.37
197.088	2372.69
197.163	2392.03
197.238	2407.89
197.313	2408.08
197.388	2423.08
197.464	2452.36
197.539	2462.6
197.614	2450.5
197.689	2465.79
197.764	2484.36
197.839	2505.74
197.914	2496.64
197.989	2518.36
198.065	2534.69
198.14	2586.63
198.215	2611.54
198.29	2622.35
198.365	2636.59
198.44	2646.5
198.515	2672.13
198.59	2690.47
198.665	2720.77
198.74	2734.45
198.815	2738.55
198.89	2764.51
198.965	2796.35
199.04	2791.01
199.115	2810.74
199.19	2857.24
199.265	2861.1
199.34	2869.1
199.415	2903.86
199.49	2924.16
199.565	2933.83
199.64	2955.76
199.715	2953.61
199.79	2963.91
199.865	2970.92
199.94	2970.82
200.015	3006.73
200.09	3014.55
200.165	3023.22
200.24	3026.46
200.315	3063.93
200.39	3078.57
200.464	3082.43
200.539	3080.52
200.614	3102.12
200.689	3124.63
200.764	3130.35
200.839	3151.33
200.914	3158.38
200.989	3147.12
201.063	3165.1
201.138	3148
201.213	3149
201.288	3130.02
201.363	3136.07
201.438	3136.55
201.512	3151.66
201.587	3130.39
201.662	3137.4
201.737	3148.51
201.812	3156.86
201.886	3123.98
201.961	3135.05
202.036	3125.18
202.111	3123.94
202.186	3091.77
202.26	3071.31
202.335	3050.8
202.41	3041.12
202.485	3026.58
202.559	3008.37
202.634	2982.76
202.709	2992.44
202.784	2974.32
202.858	2976.42
202.933	2961.92
203.008	2957.16
203.082	2941.14
203.157	2944.81
203.232	2902.68
203.306	2886.23
203.381	2860.01
203.456	2840.84
203.53	2821.28
203.605	2808.42
203.68	2792.26
203.754	2796.16
203.829	2792.97
203.904	2781.34
203.978	2778.63
204.053	2793.83
204.127	2793.59
204.202	2805.46
204.277	2803.41
204.351	2811.66
204.426	2818.62
204.5	2825.39
204.575	2807.66
204.65	2833.55
204.724	2843.81
204.799	2871.68
204.873	2891.61
204.948	2916.69
205.022	2927.75
205.097	2949.88
205.171	2992.46
205.246	3027.19
205.32	3058.27
205.395	3094
205.469	3119.02
205.544	3159.97
205.618	3181.25
205.693	3232.49
205.767	3259.4
205.842	3327.04
205.916	3367.65
205.991	3404.45
206.065	3459.07
206.14	3531.07
206.214	3581.09
206.289	3632.1
206.363	3703.27
206.438	3761.47
206.512	3828.47
206.586	3914.26
206.661	3980.53
206.735	4021.14
206.81	4089.72
206.884	4172.42
206.958	4226.01
207.033	4314.54
207.107	4394.55
207.181	4496.71
207.256	4564.66
207.33	4657.86
207.405	4747.05
207.479	4843.66
207.553	4934.37
207.628	4994.35
207.702	5085.77
207.776	5160.88
207.851	5247.17
207.925	5348.36
207.999	5429.93
208.073	5509.64
208.148	5596.76
208.222	5676.89
208.296	5801.05
208.371	5909.54
208.445	6017.45
208.519	6142.47
208.593	6248.04
208.668	6343.57
208.742	6441.05
208.816	6540.41
208.89	6661.92
208.965	6753.68
209.039	6852.01
209.113	6966.48
209.187	7089.95
209.261	7181.84
209.336	7303.75
209.41	7421.31
209.484	7520.11
209.558	7644.48
209.632	7760.58
209.707	7878
209.781	7999.62
209.855	8116.85
209.929	8236.14
210.003	8342.22
210.077	8438.93
210.151	8590.69
210.226	8723.05
210.3	8851.44
210.374	8975.94
210.448	9068.66
210.522	9180.5
210.596	9297.72
210.67	9398.92
210.744	9548.83
210.818	9674.63
210.892	9795.28
210.966	9890.15
211.041	10002.18
211.115	10094.08
211.189	10213.92
211.263	10319.95
211.337	10420.68
211.411	10522.86
211.485	10603.91
211.559	10701.09
211.633	10789.39
211.707	10843.51
211.781	10943.22
211.855	10995.12
211.929	11071.98
212.003	11138.76
212.077	11235.1
212.151	11335.78
212.225	11444.41
212.299	11519.26
212.373	11599.26
212.447	11680.82
212.52	11802.04
212.594	11889.76
212.668	11986.16
212.742	12058.46
212.816	12141.8
212.89	12222.73
212.964	12306.84
213.038	12395.2
213.112	12490.79
213.186	12594.71
213.26	12656.99
213.333	12692.61
213.407	12778.9
213.481	12865.33
213.555	12958.99
213.629	13024.26
213.703	13082.68
213.777	13152.77
213.85	13200.98
213.924	13314.6
213.998	13386.14
214.072	13453.1
214.146	13510.71
214.219	13585.43
214.293	13649.15
214.367	13719.78
214.441	13797.58
214.515	13858.32
214.588	13902.86
214.662	13944.27
214.736	13988.96
214.81	14061.7
214.883	14132.81
214.957	14187.33
215.031	14230.81
215.105	14277.43
215.178	14322.5
215.252	14379.09
215.326	14413.94
215.4	14464.85
215.473	14476.9
215.547	14519.13
215.621	14558.65
215.694	14621.27
215.768	14658.92
215.842	14703.07
215.915	14753.25
215.989	14780.54
216.063	14817.03
216.136	14875.45
216.21	14926.31
216.284	14991.96
216.357	15046.23
216.431	15097.43
216.504	15155.7
216.578	15240.97
216.652	15302.72
216.725	15364.9
216.799	15424.96
216.873	15484.59
216.946	15545.99
217.02	15590
217.093	15636.85
217.167	15667.8
217.24	15710.21
217.314	15753.64
217.387	15799.39
217.461	15830.23
217.535	15902.2
217.608	15949.77
217.682	15996.76
217.755	16058.79
217.829	16105.02
217.902	16153.26
217.976	16196.21
218.049	16233.95
218.123	16262.48
218.196	16314
218.27	16359.89
218.343	16399.65
218.417	16447.65
218.49	16493.78
218.563	16562.26
218.637	16625.25
218.71	16698.56
218.784	16751
218.857	16807.96
218.931	16858.91
219.004	16916.4
219.077	16966.38
219.151	17021.13
219.224	17069.9
219.298	17109.52
219.371	17161.9
219.444	17207.01
219.518	17265.38
219.591	17327.64
219.665	17407.5
219.738	17454.05
219.811	17479.26
219.885	17537.72
219.958	17586.1
220.031	17620.51
220.105	17660.7
220.178	17701.81
220.251	17737.18
220.325	17790.43
220.398	17836.31
220.471	17890.63
220.544	17942.14
220.618	17978.19
220.691	18031.78
220.764	18081.8
220.838	18135.58
220.911	18170.76
220.984	18229.21
221.057	18275.91
221.131	18323.86
221.204	18340.39
221.277	18409.74
221.35	18493.11
221.424	18522.55
221.497	18566.07
221.57	18604.04
221.643	18651.07
221.716	18687.36
221.79	18718.2
221.863	18755.31
221.936	18796.7
222.009	18836.65
222.082	18876.02
222.155	18900.07
222.229	18941.95
222.302	18976.21
222.375	19008.35
222.448	19057.31
222.521	19091.87
222.594	19124.2
222.667	19146.71
222.74	19188.24
222.814	19214.41
222.887	19241.25
222.96	19283.28
223.033	19326.36
223.106	19369.87
223.179	19410.69
223.252	19454.54
223.325	19489.87
223.398	19521.86
223.471	19551.98
223.544	19572.85
223.617	19603.84
223.69	19647.11
223.763	19667.93
223.837	19699.44
223.91	19729.03
223.983	19733.66
224.056	19744.7
224.129	19758.57
224.202	19788.84
224.275	19809.03
224.348	19814.86
224.42	19817.9
224.493	19826.91
224.566	19845.46
224.639	19872.79
224.712	19888.16
224.785	19894.52
224.858	19912.01
224.931	19917.99
225.004	19932.98
225.077	19957.22
225.15	19943.19
225.223	19954.28
225.296	19988.3
225.369	19981.75
225.442	19988.44
225.514	20011.87
225.587	20039.29
225.66	20076.2
225.733	20098.42
225.806	20115.67
225.879	20125.89
225.952	20136.63
226.025	20166.32
226.097	20192.05
226.17	20203.57
226.243	20196.54
226.316	20213.84
226.389	20227.91
226.461	20235.04
226.534	20249.74
226.607	20257.45
226.68	20305.55
226.753	20315.91
226.825	20310.08
226.898	20356.29
226.971	20369.06
227.044	20389.98
227.117	20398.46
227.189	20409.69
227.262	20424.24
227.335	20434.56
227.407	20449.02
227.48	20467.62
227.553	20467.57
227.626	20466.12
227.698	20469.55
227.771	20481.35
227.844	20475.76
227.916	20476.87
227.989	20478.51
228.062	20476.82
228.134	20508.58
228.207	20509.11
228.28	20510.36
228.352	20503.91
228.425	20494.17
228.498	20511.28
228.57	20499.33
228.643	20510.7
228.716	20507.76
228.788	20495.09
228.861	20482.7
228.934	20492.39
229.006	20487.23
229.079	20496.63
229.151	20492.73
229.224	20481.11
229.296	20490.56
229.369	20528.39
229.442	20557.64
229.514	20561.21
229.587	20575.09
229.659	20558.22
229.732	20553.98
229.804	20563.91
229.877	20594.27
229.949	20606.61
230.022	20616.34
230.094	20612.87
230.167	20616.54
230.239	20605.16
230.312	20613.89
230.384	20637.74
230.457	20645.36
230.529	20655.14
230.602	20653.45
230.674	20657.45
230.747	20675.48
230.819	20678.27
230.892	20641.79
230.964	20633.64
231.037	20632.73
231.109	20627.04
231.181	20630.13
231.254	20621.26
231.326	20617.69
231.399	20609.6
231.471	20598.41
231.544	20568.58
231.616	20587.57
231.688	20580.39
231.761	20577.26
231.833	20563.86
231.905	20533.11
231.978	20517.74
232.05	20506.32
232.122	20491.57
232.195	20471.47
232.267	20465.4
232.339	20453.4
232.412	20460.44
232.484	20442.7
232.556	20428.1
232.629	20437.88
232.701	20436.82
232.773	20428
232.846	20415.76
232.918	20401.01
232.99	20389.16
233.062	20396.63
233.135	20380.48
233.207	20353.45
233.279	20347.28
233.351	20344.63
233.424	20332.44
233.496	20306.75
233.568	20315.76
233.64	20299.47
233.713	20284.49
233.785	20272
233.857	20255.96
233.929	20220.49
234.001	20234.46
234.074	20239.48
234.146	20202.42
234.218	20177.4
234.29	20157.45
234.362	20131.48
234.434	20095.86
234.507	20061.89
234.579	20021.07
234.651	19999.29
234.723	20001.22
234.795	19985.94
234.867	19955.63
234.939	19957.51
235.012	19947.53
235.084	19924.64
235.156	19917.03
235.228	19894.42
235.3	19865.32
235.372	19852.02
235.444	19843.63
235.516	19785.08
235.588	19768.69
235.66	19752.98
235.732	19726.53
235.804	19761.9
235.876	19754.67
235.948	19755.68
236.02	19740.89
236.092	19719.44
236.164	19684.65
236.236	19649.42
236.308	19616.7
236.38	19603.74
236.452	19566.49
236.524	19548.27
236.596	19542.88
236.668	19523.12
236.74	19506.88
236.812	19489.24
236.884	19469.58
236.956	19446.5
237.028	19420.04
237.1	19373.73
237.172	19358.02
237.244	19353.49
237.316	19285.73
237.388	19251.86
237.46	19213.98
237.532	19202.99
237.604	19173.88
237.675	19172.1
237.747	19148.83
237.819	19124.83
237.891	19093.55
237.963	19060.11
238.035	19027.92
238.107	18958.28
238.178	18941.32
238.25	18909.08
238.322	18913.8
238.394	18874.29
238.466	18840.75
238.538	18819.5
238.609	18801.76
238.681	18758.25
238.753	18709.96
238.825	18680.57
238.897	18656.23
238.968	18642.54
239.04	18606.93
239.112	18605.77
239.184	18568.52
239.255	18544.81
239.327	18507.95
239.399	18491.18
239.471	18477.54
239.542	18450.55
239.614	18438.6
239.686	18373.26
239.758	18347.76
239.829	18293.31
239.901	18268.4
239.973	18235.58
240.044	18208.78
240.116	18177.27
240.188	18141.56
240.259	18113.99
240.331	18085.94
240.403	18060.98
240.474	18015.25
240.546	17973.18
240.618	17917.81
240.689	17880.36
240.761	17839.83
240.833	17826.34
240.904	17772.94
240.976	17731.98
241.048	17704.51
241.119	17676.9
241.191	17660.56
241.262	17651.16
241.334	17613.28
241.405	17577.62
241.477	17541.14
241.549	17504.08
241.62	17475.41
241.692	17453.91
241.763	17433.43
241.835	17390.68
241.906	17356.95
241.978	17315.6
242.049	17290.44
242.121	17275.84
242.192	17249.67
242.264	17213.19
242.335	17160.65
242.407	17144.51
242.478	17105.09
242.55	17078.87
242.621	17041.71
242.693	17001.13
242.764	16958.38
242.836	16930.29
242.907	16909.56
242.979	16886.96
243.05	16861.03
243.122	16834.76
243.193	16796.5
243.264	16744.45
243.336	16711.14
243.407	16686.18
243.479	16664.35
243.55	16642.71
243.622	16605.79
243.693	16569.69
243.764	16547.42
243.836	16508.29
243.907	16473.49
243.978	16443.99
244.05	16409.96
244.121	16352.42
244.192	16333.09
244.264	16279.01
244.335	16240.4
244.407	16186.76
244.478	16152.11
244.549	16112.44
244.62	16068.67
244.692	16036.67
244.763	16009.34
244.834	15978.11
244.906	15939.55
244.977	15916.17
245.048	15897.14
245.119	15854.67
245.191	15817.32
245.262	15771
245.333	15757.41
245.405	15722.51
245.476	15692.05
245.547	15656.91
245.618	15643.51
245.689	15611.74
245.761	15590.3
245.832	15558.19
245.903	15544.17
245.974	15523.78
246.045	15488.11
246.117	15467.33
246.188	15418.41
246.259	15374.5
246.33	15337.62
246.401	15295.78
246.473	15248.4
246.544	15208.54
246.615	15189.16
246.686	15155.85
246.757	15134.93
246.828	15095.21
246.899	15085.24
246.97	15038.86
247.042	15008.3
247.113	14985.84
247.184	14967.76
247.255	14931.47
247.326	14906.98
247.397	14869
247.468	14833.95
247.539	14810.96
247.61	14765.94
247.681	14752.2
247.752	14744.97
247.823	14713.58
247.894	14691.31
247.965	14647.45
248.037	14609.66
248.108	14563.91
248.179	14539.04
248.25	14504.76
248.321	14484.18
248.392	14437.61
248.463	14436.7
248.534	14401.22
248.605	14374.22
248.675	14347.08
248.746	14328.28
248.817	14302.25
248.888	14278.44
248.959	14232.02
249.03	14209.7
249.101	14189.31
249.172	14160.14
249.243	14110.3
249.314	14097.52
249.385	14075.59
249.456	14056.64
249.527	14025.02
249.598	14012.63
249.669	13988.77
249.739	13965.68
249.81	13943.84
249.881	13903.97
249.952	13874.86
250.023	13848.34
250.094	13806.69
250.165	13767.45
250.235	13736.31
250.306	13705.75
250.377	13674.42
250.448	13664.53
250.519	13617.97
250.59	13609.53
250.66	13585.33
250.731	13572.51
250.802	13548.02
250.873	13519.34
250.944	13505.07
251.014	13473.78
251.085	13463.95
251.156	13435.36
251.227	13434.73
251.297	13424.9
251.368	13415.02
251.439	13412.65
251.51	13401.23
251.58	13373.41
251.651	13346.56
251.722	13333.31
251.792	13293.97
251.863	13264.42
251.934	13255.31
252.005	13259.84
252.075	13225.08
252.146	13203.44
252.217	13192.4
252.287	13172.06
252.358	13144.72
252.429	13139.52
252.499	13111.46
252.57	13094.54
252.641	13080.46
252.711	13043.3
252.782	12994.42
252.852	12991.67
252.923	12953.25
252.994	12936.28
253.064	12934.06
253.135	12900.8
253.205	12875.2
253.276	12872.89
253.347	12866.33
253.417	12833.84
253.488	12809.16
253.558	12786.55
253.629	12763.51
253.699	12742.78
253.77	12731.5
253.841	12711.06
253.911	12681.42
253.982	12666.09
254.052	12651.34
254.123	12631.19
254.193	12608.58
254.264	12627.43
254.334	12593.88
254.405	12558.01
254.475	12515.21
254.546	12479.2
254.616	12481.7
254.687	12461.22
254.757	12445.94
254.827	12415.23
254.898	12405.59
254.968	12387.42
255.039	12356.28
255.109	12348.33
255.18	12318.34
255.25	12271.83
255.321	12254.96
255.391	12225.7
255.461	12228.3
255.532	12173.68
255.602	12152.23
255.673	12119.17
255.743	12091.4
255.813	12043.88
255.884	12044.84
255.954	12039.39
256.024	12035.49
256.095	12014.18
256.165	11982.03
256.235	11971
256.306	11953.07
256.376	11938.56
256.446	11919.28
256.517	11906.65
256.587	11895.08
256.657	11881.44
256.728	11866.45
256.798	11847.27
256.868	11822.2
256.938	11794.15
257.009	11786.1
257.079	11767.25
257.149	11776.75
257.219	11734.29
257.29	11723.73
257.36	11682.04
257.43	11669.46
257.5	11634.56
257.571	11610.32
257.641	11601.55
257.711	11565.83
257.781	11553.49
257.852	11531.66
257.922	11494.55
257.992	11478.88
258.062	11457.2
258.132	11448.47
258.202	11432.09
258.273	11419.17
258.343	11431.17
258.413	11399.51
258.483	11379.84
258.553	11351.26
258.623	11320.95
258.693	11310.2
258.764	11314.1
258.834	11314.15
258.904	11300.13
258.974	11275.89
259.044	11249.53
259.114	11236.9
259.184	11224.61
259.254	11202.78
259.324	11172.66
259.394	11163.98
259.464	11169.91
259.535	11150.2
259.605	11127.6
259.675	11097.87
259.745	11079.74
259.815	11034.15
259.885	11012.37
259.955	11030.01
260.025	11009.44
260.095	10991.61
260.165	10982.74
260.235	10977.49
260.305	10947.66
260.375	10912.19
260.445	10916.33
260.515	10921.01
260.585	10912.72
260.655	10895.81
260.725	10889.73
260.795	10881.49
260.865	10883.61
260.934	10854.7
261.004	10847.09
261.074	10827.28
261.144	10824.87
261.214	10828.1
261.284	10819.09
261.354	10819.24
261.424	10789.74
261.494	10792.73
261.564	10774.66
261.634	10771.86
261.703	10738.23
261.773	10727.58
261.843	10727.87
261.913	10713.46
261.983	10677.42
