Data from 20250703_urea_0.1M_MAYP1162681_04-51-05-611.txt Node
Date: Fri Jul 04 04:51:05 BST 2025
User: adleo
Spectrometer: MAYP116268
Trigger mode: 0
Integration Time (sec): 1.000000E0
Scans to average: 1
Electric dark correction enabled: true
Nonlinearity correction enabled: true
Boxcar width: 10
XAxis mode: Wavelengths
Number of Pixels in Spectrum: 2068
>>>>>Begin Spectral Data<<<<<
179.565	1271.16
179.642	1334.49
179.718	1381.24
179.795	1422.45
179.871	1456.84
179.948	1473.64
180.024	1496.04
180.101	1521.88
180.177	1537.39
180.254	1564.02
180.33	1586.98
180.407	1646.38
180.483	1747.72
180.56	1840.89
180.636	1929.73
180.712	1915.37
180.789	1925.06
180.865	1940.75
180.942	1948.78
181.018	1958.53
181.095	1973.23
181.171	1978.6
181.248	1976.18
181.324	1992.78
181.4	2000.48
181.477	2012.85
181.553	2027.49
181.63	2048.51
181.706	2064.49
181.782	2072.81
181.859	2070.24
181.935	2076.9
182.011	2072.62
182.088	2089.89
182.164	2115.02
182.24	2131.04
182.317	2141.5
182.393	2142.6
182.469	2156.54
182.546	2171.04
182.622	2172.33
182.698	2164.62
182.775	2175.14
182.851	2190.93
182.927	2183.41
183.003	2178.04
183.08	2172.14
183.156	2182.84
183.232	2180.89
183.308	2168.14
183.385	2176.32
183.461	2193.83
183.537	2191.6
183.613	2206.01
183.69	2197.21
183.766	2181.69
183.842	2186.83
183.918	2192.35
183.995	2205.72
184.071	2209.62
184.147	2206.39
184.223	2197.59
184.299	2212.58
184.375	2203.02
184.452	2209.92
184.528	2260.13
184.604	2272.73
184.68	2285.06
184.756	2292.2
184.832	2294.76
184.908	2300.95
184.985	2297.29
185.061	2280.49
185.137	2293.15
185.213	2279.49
185.289	2281.02
185.365	2275.07
185.441	2275.4
185.517	2289.21
185.593	2284.11
185.669	2281.45
185.745	2289.49
185.822	2308.19
185.898	2298.19
185.974	2303.71
186.05	2296.09
186.126	2259.07
186.202	2250.64
186.278	2244.08
186.354	2235.32
186.43	2243.37
186.506	2236.9
186.582	2241.04
186.658	2248.84
186.734	2226.24
186.81	2230.52
186.886	2231.04
186.962	2245.08
187.038	2243.03
187.114	2235.61
187.19	2242.55
187.266	2233.75
187.341	2234.09
187.417	2227.57
187.493	2227.66
187.569	2236.09
187.645	2229.09
187.721	2217.81
187.797	2227.66
187.873	2235.42
187.949	2227.38
188.025	2220.76
188.101	2226.61
188.176	2229.99
188.252	2226.23
188.328	2236.65
188.404	2235.46
188.48	2230.46
188.556	2222.32
188.632	2219.52
188.707	2221.9
188.783	2218.37
188.859	2212.43
188.935	2202.06
189.011	2209.53
189.086	2206.1
189.162	2193.16
189.238	2191.68
189.314	2190.45
189.39	2182.79
189.465	2173.6
189.541	2189.21
189.617	2169.99
189.693	2164.47
189.768	2168.47
189.844	2194.13
189.92	2186.14
189.996	2196.75
190.071	2207.64
190.147	2207.55
190.223	2217.78
190.298	2209.64
190.374	2198.51
190.45	2208.31
190.526	2215.06
190.601	2208.88
190.677	2209.93
190.753	2239.44
190.828	2243.77
190.904	2259.48
190.98	2273.85
191.055	2285.98
191.131	2282.79
191.207	2306.15
191.282	2316.95
191.358	2305.2
191.433	2286.63
191.509	2295.76
191.585	2290.29
191.66	2290.2
191.736	2297.9
191.811	2286.2
191.887	2302.48
191.963	2323.8
192.038	2329.56
192.114	2329.8
192.189	2334.03
192.265	2330.41
192.34	2309.04
192.416	2306.23
192.491	2301.42
192.567	2302.85
192.642	2304.42
192.718	2300.52
192.793	2289.81
192.869	2284.62
192.944	2289.86
193.02	2298.95
193.095	2305.37
193.171	2313.37
193.246	2315.41
193.322	2314.27
193.397	2316.46
193.473	2298.99
193.548	2283.52
193.624	2290.52
193.699	2291.52
193.775	2306.08
193.85	2307.8
193.925	2315.98
194.001	2313.41
194.076	2306.32
194.152	2296.18
194.227	2286.52
194.302	2277.15
194.378	2284.24
194.453	2285.38
194.529	2296.52
194.604	2281.96
194.679	2273.87
194.755	2253.46
194.83	2263.74
194.905	2258.7
194.981	2267.55
195.056	2266.65
195.131	2272.36
195.207	2272.97
195.282	2263.17
195.357	2245.51
195.433	2261.84
195.508	2250.08
195.583	2262.64
195.659	2278.06
195.734	2289.54
195.809	2291.49
195.884	2305.43
195.96	2303.67
196.035	2313.61
196.11	2312.42
196.185	2324.46
196.261	2330.41
196.336	2363.87
196.411	2352.3
196.486	2359.77
196.561	2352.01
196.637	2355.63
196.712	2374.06
196.787	2376.15
196.862	2391.19
196.937	2402.57
197.013	2407.85
197.088	2420.75
197.163	2440.75
197.238	2455.71
197.313	2450.38
197.388	2463.62
197.464	2490.15
197.539	2500.95
197.614	2498
197.689	2506.91
197.764	2526.77
197.839	2550.63
197.914	2542.77
197.989	2567.06
198.065	2580.1
198.14	2634.24
198.215	2663.63
198.29	2674.21
198.365	2683.26
198.44	2696.5
198.515	2725.04
198.59	2738.76
198.665	2766.45
198.74	2773.98
198.815	2775.31
198.89	2803.42
198.965	2833.88
199.04	2830.3
199.115	2847.5
199.19	2893.58
199.265	2899.54
199.34	2909.12
199.415	2942.5
199.49	2969
199.565	2979.63
199.64	3002.75
199.715	2998.84
199.79	3007.37
199.865	3012.76
199.94	3016.62
200.015	3045.46
200.09	3049.14
200.165	3055.62
200.24	3062.2
200.315	3102.29
200.39	3119.46
200.464	3121.65
200.539	3126.52
200.614	3144.11
200.689	3168.15
200.764	3173.35
200.839	3193.56
200.914	3200
200.989	3189.93
201.063	3203.38
201.138	3182.41
201.213	3185.66
201.288	3166.44
201.363	3173.11
201.438	3175.55
201.512	3191.99
201.587	3176.59
201.662	3180.59
201.737	3194.04
201.812	3200.63
201.886	3167.74
201.961	3178.14
202.036	3171.04
202.111	3164.41
202.186	3135.86
202.26	3117.49
202.335	3095.22
202.41	3090.45
202.485	3069.47
202.559	3047.49
202.634	3018.6
202.709	3032.89
202.784	3013.34
202.858	3015.82
202.933	2999.99
203.008	2995.6
203.082	2977.2
203.157	2981.83
203.232	2942.13
203.306	2927.11
203.381	2899.26
203.456	2882.63
203.53	2867.69
203.605	2851.44
203.68	2837.19
203.754	2840.09
203.829	2833.23
203.904	2825.22
203.978	2821.69
204.053	2840.62
204.127	2839.95
204.202	2851.39
204.277	2847.24
204.351	2857.25
204.426	2867.31
204.5	2874.18
204.575	2857.21
204.65	2887.02
204.724	2900.04
204.799	2932.25
204.873	2955.05
204.948	2982.18
205.022	2997.96
205.097	3016.71
205.171	3063.78
205.246	3105.53
205.32	3139.67
205.395	3179.65
205.469	3205.21
205.544	3251.89
205.618	3275.08
205.693	3336.36
205.767	3371.53
205.842	3442.72
205.916	3487.02
205.991	3527.75
206.065	3585.91
206.14	3657.02
206.214	3710.97
206.289	3760.8
206.363	3835.43
206.438	3900.35
206.512	3969.41
206.586	4058.4
206.661	4133.58
206.735	4181.23
206.81	4253.05
206.884	4340.13
206.958	4399.43
207.033	4493.35
207.107	4580.92
207.181	4694.03
207.256	4766.32
207.33	4871.45
207.405	4966.33
207.479	5074.43
207.553	5165.7
207.628	5236.29
207.702	5338.86
207.776	5422.78
207.851	5518.44
207.925	5625.76
207.999	5717.79
208.073	5812.55
208.148	5911.99
208.222	5998.83
208.296	6128.43
208.371	6241.24
208.445	6353.46
208.519	6483.92
208.593	6595.43
208.668	6691.83
208.742	6797.05
208.816	6897.55
208.89	7014.22
208.965	7117.76
209.039	7226.52
209.113	7350.41
209.187	7476.09
209.261	7579.76
209.336	7703.02
209.41	7829
209.484	7935.97
209.558	8068.64
209.632	8192.34
209.707	8318.83
209.781	8447.77
209.855	8577.46
209.929	8702.71
210.003	8817.06
210.077	8921.79
210.151	9084.72
210.226	9228.49
210.3	9366.22
210.374	9500.72
210.448	9608.11
210.522	9723.6
210.596	9839.42
210.67	9961.61
210.744	10121.05
210.818	10258.8
210.892	10393.92
210.966	10501.3
211.041	10624.73
211.115	10719.55
211.189	10845.4
211.263	10949.97
211.337	11057.47
211.411	11172.11
211.485	11270.09
211.559	11380.64
211.633	11482.41
211.707	11544.15
211.781	11656.17
211.855	11712.75
211.929	11804.61
212.003	11884.91
212.077	11992.15
212.151	12103.35
212.225	12199.42
212.299	12274.86
212.373	12357.33
212.447	12440.24
212.52	12558.44
212.594	12649.69
212.668	12747.44
212.742	12822.45
212.816	12913.03
212.89	12994.5
212.964	13080.59
213.038	13172.52
213.112	13272.5
213.186	13371.8
213.26	13438.76
213.333	13468.36
213.407	13563.18
213.481	13643.93
213.555	13745.83
213.629	13815.78
213.703	13881.92
213.777	13968.16
213.85	14031.16
213.924	14147.34
213.998	14231.31
214.072	14297.4
214.146	14357.99
214.219	14436.76
214.293	14505.55
214.367	14577.14
214.441	14660.48
214.515	14725.94
214.588	14778.44
214.662	14815.46
214.736	14871.37
214.81	14946.09
214.883	15027.03
214.957	15083.71
215.031	15145.22
215.105	15178.39
215.178	15228.81
215.252	15281.44
215.326	15315.33
215.4	15357.6
215.473	15365.6
215.547	15404.45
215.621	15453.18
215.694	15529.97
215.768	15569.06
215.842	15615.72
215.915	15662.52
215.989	15691.97
216.063	15733.18
216.136	15789.86
216.21	15842.11
216.284	15906.31
216.357	15960.25
216.431	16008.4
216.504	16066.38
216.578	16150.92
216.652	16218.11
216.725	16276.19
216.799	16341.35
216.873	16399.77
216.946	16472.25
217.02	16522.57
217.093	16564.17
217.167	16585.04
217.24	16614.29
217.314	16649.33
217.387	16692.08
217.461	16735.22
217.535	16804.09
217.608	16851.46
217.682	16893.54
217.755	16954.26
217.829	16993.25
217.902	17037.4
217.976	17083.04
218.049	17132.1
218.123	17164.77
218.196	17218.08
218.27	17258.85
218.343	17291.23
218.417	17341.88
218.49	17373.84
218.563	17443.43
218.637	17506.7
218.71	17592.48
218.784	17645.06
218.857	17710.7
218.931	17766.32
219.004	17814.31
219.077	17865.78
219.151	17905.59
219.224	17952.91
219.298	17990.74
219.371	18046.55
219.444	18084.43
219.518	18133.58
219.591	18170.45
219.665	18233.38
219.738	18284.56
219.811	18313.57
219.885	18369.57
219.958	18423.35
220.031	18469.52
220.105	18514.53
220.178	18555.83
220.251	18579.63
220.325	18633.6
220.398	18676.2
220.471	18733.21
220.544	18786.22
220.618	18822.8
220.691	18878.55
220.764	18923.42
220.838	18978.26
220.911	19019.12
220.984	19080.81
221.057	19129.33
221.131	19179.59
221.204	19190.87
221.277	19245.61
221.35	19328.21
221.424	19353.85
221.497	19393.32
221.57	19432.88
221.643	19467.92
221.716	19510.76
221.79	19543.53
221.863	19571.28
221.936	19608.73
222.009	19639.76
222.082	19681.35
222.155	19716.38
222.229	19761.59
222.302	19800.62
222.375	19831.99
222.448	19871.22
222.521	19909
222.594	19936.76
222.667	19954.3
222.74	19996.23
222.814	20017.19
222.887	20029.77
222.96	20072.85
223.033	20103.6
223.106	20140.75
223.179	20176.03
223.252	20207.6
223.325	20247.4
223.398	20280.66
223.471	20316.61
223.544	20341.23
223.617	20364.08
223.69	20387.11
223.763	20395.79
223.837	20417.91
223.91	20440.94
223.983	20442.58
224.056	20448.08
224.129	20478.97
224.202	20515.4
224.275	20525.04
224.348	20534.53
224.42	20549.47
224.493	20552.65
224.566	20569.14
224.639	20598.49
224.712	20605.57
224.785	20611.35
224.858	20619.06
224.931	20626.1
225.004	20625.28
225.077	20641.81
225.15	20632.7
225.223	20644.66
225.296	20677.38
225.369	20670.87
225.442	20678.15
225.514	20698.97
225.587	20712.32
225.66	20720.9
225.733	20738.63
225.806	20753.96
225.879	20772.71
225.952	20773.24
226.025	20803.12
226.097	20816.85
226.17	20818.93
226.243	20804.23
226.316	20815.99
226.389	20817.43
226.461	20835.31
226.534	20850.21
226.607	20851.6
226.68	20889.1
226.753	20905.34
226.825	20892.91
226.898	20921.25
226.971	20923.99
227.044	20928.67
227.117	20946.26
227.189	20957.25
227.262	20969.34
227.335	20986.74
227.407	20987.27
227.48	20998.55
227.553	20999.03
227.626	21009.15
227.698	21009.54
227.771	21029.88
227.844	21022.84
227.916	21031.61
227.989	21022.31
228.062	21021.59
228.134	21053.25
228.207	21047.9
228.28	21042.84
228.352	21042.65
228.425	21040.34
228.498	21060.92
228.57	21054.36
228.643	21063.23
228.716	21061.64
228.788	21053.54
228.861	21039.04
228.934	21045.93
229.006	21038.84
229.079	21035.42
229.151	21021.11
229.224	21008.58
229.296	21011.85
229.369	21048.24
229.442	21078.32
229.514	21063.86
229.587	21075.33
229.659	21041.21
229.732	21038.94
229.804	21040.53
229.877	21060.48
229.949	21069.3
230.022	21081.93
230.094	21085.98
230.167	21088.2
230.239	21069.21
230.312	21051.23
230.384	21083.14
230.457	21083.81
230.529	21088.01
230.602	21086.8
230.674	21081.79
230.747	21091.77
230.819	21098.03
230.892	21053.16
230.964	21037.25
231.037	21041.93
231.109	21031.95
231.181	21049.26
231.254	21036.15
231.326	21031.76
231.399	21021.73
231.471	21005.16
231.544	20968.67
231.616	20973.83
231.688	20961.92
231.761	20950.26
231.833	20953.49
231.905	20912.18
231.978	20911.27
232.05	20903.75
232.122	20899.32
232.195	20889.68
232.267	20886.25
232.339	20869.87
232.412	20874.4
232.484	20855.7
232.556	20837.34
232.629	20843.46
232.701	20826.78
232.773	20818.2
232.846	20794.83
232.918	20773.72
232.99	20761.43
233.062	20759.21
233.135	20738.06
233.207	20712.37
233.279	20713.04
233.351	20704.9
233.424	20677.62
233.496	20643.84
233.568	20645.33
233.64	20608.9
233.713	20594.63
233.785	20580.22
233.857	20563.35
233.929	20530.39
234.001	20529.91
234.074	20526.87
234.146	20493.47
234.218	20467.11
234.29	20442.1
234.362	20416.94
234.434	20388.61
234.507	20351.31
234.579	20319.93
234.651	20297.14
234.723	20282.54
234.795	20267.31
234.867	20236.95
234.939	20231.89
235.012	20210.3
235.084	20185.57
235.156	20170.34
235.228	20142.1
235.3	20106.2
235.372	20087.65
235.444	20081.67
235.516	20031.84
235.588	20019.84
235.66	19995.89
235.732	19975.89
235.804	20013.87
235.876	20009.53
235.948	19997.1
236.02	19981.43
236.092	19956.09
236.164	19941.39
236.236	19911.12
236.308	19883.9
236.38	19862.79
236.452	19833.83
236.524	19815.85
236.596	19806.5
236.668	19791.56
236.74	19762.94
236.812	19749.16
236.884	19726.07
236.956	19702.07
237.028	19662.32
237.1	19617.79
237.172	19608.73
237.244	19594.46
237.316	19526.32
237.388	19483.67
237.46	19445.89
237.532	19436.93
237.604	19395.34
237.675	19379.29
237.747	19357.08
237.819	19319.25
237.891	19292.36
237.963	19259.3
238.035	19222.39
238.107	19150.39
238.178	19141.72
238.25	19113.38
238.322	19109.19
238.394	19061.82
238.466	19027.75
238.538	19016.04
238.609	18990.79
238.681	18927.71
238.753	18894.26
238.825	18864.96
238.897	18840.29
238.968	18838.84
239.04	18794.75
239.112	18799.57
239.184	18759.48
239.255	18727.38
239.327	18702.03
239.399	18662.57
239.471	18642.81
239.542	18624.69
239.614	18620.4
239.686	18560.64
239.758	18539.01
239.829	18486.77
239.901	18465.76
239.973	18433.95
240.044	18412.46
240.116	18382.68
240.188	18354.92
240.259	18317.72
240.331	18269.43
240.403	18240.56
240.474	18183.7
240.546	18138.74
240.618	18085.44
240.689	18038.89
240.761	18007.56
240.833	17991.32
240.904	17965.54
240.976	17932
241.048	17895.18
241.119	17865.35
241.191	17836.05
241.262	17822.56
241.334	17780.29
241.405	17750.75
241.477	17714.46
241.549	17672.49
241.62	17650.37
241.692	17631.67
241.763	17603.43
241.835	17577.6
241.906	17543.96
241.978	17494.03
242.049	17485.55
242.121	17460.25
242.192	17440.78
242.264	17398.32
242.335	17347.33
242.407	17320.44
242.478	17278.41
242.55	17247.67
242.621	17197.35
242.693	17160.58
242.764	17115.14
242.836	17076.68
242.907	17053.45
242.979	17027.47
243.05	17000.92
243.122	16969.11
243.193	16929.01
243.264	16875.37
243.336	16843.42
243.407	16825.63
243.479	16817.68
243.55	16782.35
243.622	16752.76
243.693	16719.94
243.764	16698.35
243.836	16657.67
243.907	16624.9
243.978	16598.24
244.05	16565.42
244.121	16527.97
244.192	16506.04
244.264	16459.53
244.335	16432.06
244.407	16365.16
244.478	16330.08
244.549	16289.35
244.62	16229.05
244.692	16196.81
244.763	16181.67
244.834	16138.15
244.906	16091.5
244.977	16061.9
245.048	16040.07
245.119	15993.17
245.191	15951.87
245.262	15905.59
245.333	15883.95
245.405	15844.82
245.476	15818.88
245.547	15792.37
245.618	15766.35
245.689	15737.52
245.761	15708.65
245.832	15679.97
245.903	15670.28
245.974	15650.96
246.045	15613.94
246.117	15605.98
246.188	15559.95
246.259	15516.47
246.33	15482.06
246.401	15443.21
246.473	15395.68
246.544	15357.84
246.615	15342.66
246.686	15308.92
246.757	15288.48
246.828	15244.95
246.899	15230.64
246.97	15184.99
247.042	15141.95
247.113	15117.41
247.184	15095.38
247.255	15062.31
247.326	15032.48
247.397	15002.88
247.468	14966.44
247.539	14937.13
247.61	14889.17
247.681	14872.88
247.752	14848.58
247.823	14816.19
247.894	14794.21
247.965	14754.1
248.037	14723.11
248.108	14683.14
248.179	14652.29
248.25	14624.67
248.321	14607.99
248.392	14565.33
248.463	14557.19
248.534	14517.18
248.605	14498.33
248.675	14467.67
248.746	14449.69
248.817	14426.31
248.888	14397.29
248.959	14348.31
249.03	14331.2
249.101	14303.39
249.172	14276.63
249.243	14227.41
249.314	14216.62
249.385	14192.75
249.456	14177.04
249.527	14144.55
249.598	14123.53
249.669	14094.32
249.739	14066.02
249.81	14042.78
249.881	14004.65
249.952	13976.79
250.023	13953.65
250.094	13902.7
250.165	13863.46
250.235	13826.48
250.306	13796.93
250.377	13772.59
250.448	13754.27
250.519	13712.48
250.59	13705.87
250.66	13669.23
250.731	13665.43
250.802	13635.78
250.873	13609.26
250.944	13580.53
251.014	13552.14
251.085	13553.06
251.156	13535.36
251.227	13522.88
251.297	13513.62
251.368	13504.99
251.439	13481.08
251.51	13472.65
251.58	13447.15
251.651	13424.73
251.722	13416.87
251.792	13378.79
251.863	13344.71
251.934	13340.8
252.005	13344.9
252.075	13322.97
252.146	13316.41
252.217	13305.52
252.287	13294.62
252.358	13275.63
252.429	13275.87
252.499	13248.15
252.57	13220.24
252.641	13206.11
252.711	13185.19
252.782	13138.29
252.852	13134.58
252.923	13118.38
252.994	13100.73
253.064	13093.55
253.135	13062.65
253.205	13032.43
253.276	13035.66
253.347	13024.67
253.417	12986.78
253.488	12962
253.558	12932.98
253.629	12906.17
253.699	12885.93
253.77	12864.72
253.841	12836.23
253.911	12812.9
253.982	12789.47
254.052	12772.02
254.123	12750.81
254.193	12728.2
254.264	12749.65
254.334	12711.42
254.405	12674.93
254.475	12641.72
254.546	12615.16
254.616	12608.36
254.687	12591.35
254.757	12566.76
254.827	12542.66
254.898	12528.73
254.968	12500.62
255.039	12472.81
255.109	12461.58
255.18	12431.64
255.25	12390.48
255.321	12376.93
255.391	12344.01
255.461	12343.87
255.532	12296.58
255.602	12267.08
255.673	12224.61
255.743	12181.71
255.813	12142.91
255.884	12134.47
255.954	12123.1
256.024	12117.21
256.095	12093.93
256.165	12068.53
256.235	12049.44
256.306	12026.5
256.376	12019.27
256.446	12011.89
256.517	11999.41
256.587	11991.79
256.657	11974.83
256.728	11956.75
256.798	11940.6
256.868	11917.9
256.938	11887.49
257.009	11879.49
257.079	11876.06
257.149	11887.1
257.219	11855.05
257.29	11841.07
257.36	11803.43
257.43	11796.25
257.5	11758.31
257.571	11734.21
257.641	11725.73
257.711	11699.65
257.781	11686.4
257.852	11670.83
257.922	11628.18
257.992	11606.58
258.062	11581.38
258.132	11571.49
258.202	11554.34
258.273	11533.23
258.343	11536.65
258.413	11517.76
258.483	11496.4
258.553	11464.88
258.623	11431.53
258.693	11420.25
258.764	11418.28
258.834	11411.63
258.904	11391.53
258.974	11370.28
259.044	11356.93
259.114	11333.84
259.184	11321.69
259.254	11298.9
259.324	11254.8
259.394	11249.45
259.464	11256.83
259.535	11240.25
259.605	11214.61
259.675	11185.98
259.745	11178.37
259.815	11149.89
259.885	11124.25
259.955	11142.03
260.025	11115.77
260.095	11099.53
260.165	11089.12
260.235	11092.21
260.305	11071.24
260.375	11040.74
260.445	11041.7
260.515	11036.5
260.585	11033.46
260.655	11014.52
260.725	11012.74
260.795	11010.23
260.865	11017.85
260.934	10985.41
261.004	10972.88
261.074	10961.37
261.144	10965.9
261.214	10957.61
261.284	10937.32
261.354	10932.89
261.424	10899.15
261.494	10909.99
261.564	10898.19
261.634	10892.84
261.703	10851.73
261.773	10842.67
261.843	10834.96
261.913	10817.52
