Data from 20250703_urea_0.1M_MAYP1162681_07-11-04-943.txt Node
Date: Fri Jul 04 07:11:04 BST 2025
User: adleo
Spectrometer: MAYP116268
Trigger mode: 0
Integration Time (sec): 1.000000E0
Scans to average: 1
Electric dark correction enabled: true
Nonlinearity correction enabled: true
Boxcar width: 10
XAxis mode: Wavelengths
Number of Pixels in Spectrum: 2068
>>>>>Begin Spectral Data<<<<<
179.565	1260.03
179.642	1316.86
179.718	1363.94
179.795	1401.44
179.871	1433.68
179.948	1451.22
180.024	1475.1
180.101	1498.54
180.177	1512
180.254	1538.19
180.33	1560.55
180.407	1617.53
180.483	1716.87
180.56	1812.37
180.636	1897.69
180.712	1881.66
180.789	1891.98
180.865	1904
180.942	1908.32
181.018	1919.12
181.095	1932.62
181.171	1936.81
181.248	1937.95
181.324	1952.5
181.4	1960.3
181.477	1973.43
181.553	1988.88
181.63	2007.04
181.706	2021.31
181.782	2030.63
181.859	2025.87
181.935	2030.58
182.011	2025.87
182.088	2044.33
182.164	2063.12
182.24	2079.48
182.317	2092.27
182.393	2091.03
182.469	2107.73
182.546	2122.57
182.622	2125.37
182.698	2117.62
182.775	2130.75
182.851	2145.97
182.927	2137.79
183.003	2133.51
183.08	2128.32
183.156	2135.27
183.232	2130.75
183.308	2121.47
183.385	2129.61
183.461	2148.87
183.537	2153.01
183.613	2166
183.69	2155.72
183.766	2143.68
183.842	2150.39
183.918	2155.05
183.995	2165.47
184.071	2168.94
184.147	2161.09
184.223	2151.53
184.299	2165.66
184.375	2152.68
184.452	2158.1
184.528	2211.93
184.604	2223.58
184.68	2234.62
184.756	2245.99
184.832	2253.37
184.908	2257.46
184.985	2257.6
185.061	2242.23
185.137	2249.04
185.213	2239.67
185.289	2238.43
185.365	2230.49
185.441	2227.3
185.517	2238.63
185.593	2237.87
185.669	2234.58
185.745	2249.29
185.822	2263.41
185.898	2256.51
185.974	2266.02
186.05	2259.5
186.126	2222.62
186.202	2217.05
186.278	2213.48
186.354	2200.87
186.43	2206.01
186.506	2203.44
186.582	2203.87
186.658	2208.01
186.734	2186.7
186.81	2188.7
186.886	2192.17
186.962	2207.77
187.038	2207.77
187.114	2200.16
187.19	2205.77
187.266	2193.5
187.341	2190.6
187.417	2185.17
187.493	2185.03
187.569	2187.36
187.645	2180.8
187.721	2170.76
187.797	2175.13
187.873	2179.89
187.949	2175.66
188.025	2170.09
188.101	2175.32
188.176	2179.41
188.252	2176.94
188.328	2185.35
188.404	2183.17
188.48	2180.41
188.556	2171.08
188.632	2169.61
188.707	2172.22
188.783	2171.41
188.859	2166.8
188.935	2157.43
189.011	2165.95
189.086	2159.19
189.162	2152.39
189.238	2147.2
189.314	2142.11
189.39	2139.35
189.465	2130.36
189.541	2147.87
189.617	2133.36
189.693	2126.13
189.768	2128.42
189.844	2154.26
189.92	2147.79
189.996	2157.78
190.071	2170.54
190.147	2168.97
190.223	2179.15
190.298	2170.01
190.374	2156.5
190.45	2170.25
190.526	2179.86
190.601	2174.05
190.677	2176.81
190.753	2206.09
190.828	2211.75
190.904	2229.79
190.98	2244.44
191.055	2257.77
191.131	2247.73
191.207	2267.23
191.282	2282.03
191.358	2274.08
191.433	2257.89
191.509	2270.97
191.585	2268.55
191.66	2268.26
191.736	2277.11
191.811	2266.88
191.887	2284.78
191.963	2309.19
192.038	2315.57
192.114	2316.66
192.189	2321.09
192.265	2318.18
192.34	2293.85
192.416	2292.95
192.491	2286.29
192.567	2288.71
192.642	2289.14
192.718	2287.91
192.793	2276.63
192.869	2270.3
192.944	2272.58
193.02	2280.05
193.095	2283.96
193.171	2289.43
193.246	2288.43
193.322	2285.34
193.397	2285.62
193.473	2271.82
193.548	2249.88
193.624	2254.3
193.699	2249.97
193.775	2267.59
193.85	2266.87
193.925	2276.82
194.001	2276.82
194.076	2268.49
194.152	2257.54
194.227	2249.45
194.302	2240.8
194.378	2242.84
194.453	2239.27
194.529	2251.55
194.604	2236.37
194.679	2229.81
194.755	2210.78
194.83	2223.73
194.905	2222.63
194.981	2231.1
195.056	2224.16
195.131	2233.53
195.207	2232.63
195.282	2223.35
195.357	2204.45
195.433	2221.72
195.508	2208.92
195.583	2217.44
195.659	2229.76
195.734	2235.09
195.809	2235.43
195.884	2246.32
195.96	2245.99
196.035	2259.93
196.11	2256.17
196.185	2270.11
196.261	2273.11
196.336	2308.47
196.411	2292.95
196.486	2296.47
196.561	2290.05
196.637	2297.23
196.712	2315.7
196.787	2320.51
196.862	2335.59
196.937	2344.4
197.013	2350.87
197.088	2359.87
197.163	2381.2
197.238	2399.44
197.313	2402.82
197.388	2416.58
197.464	2445.2
197.539	2459.53
197.614	2455.67
197.689	2467.96
197.764	2486.1
197.839	2509.82
197.914	2498.53
197.989	2522.62
198.065	2538.43
198.14	2591.94
198.215	2617.99
198.29	2628.09
198.365	2639.05
198.44	2649.9
198.515	2681.64
198.59	2695.31
198.665	2724.03
198.74	2735.42
198.815	2737.04
198.89	2761.87
198.965	2792.8
199.04	2788.75
199.115	2806.28
199.19	2849.35
199.265	2851.59
199.34	2859.17
199.415	2895.22
199.49	2920.76
199.565	2930.1
199.64	2954.03
199.715	2950.74
199.79	2958.36
199.865	2967.33
199.94	2969.95
200.015	3004.85
200.09	3009.57
200.165	3017.53
200.24	3025.06
200.315	3061.47
200.39	3079.45
200.464	3083.79
200.539	3082.64
200.614	3099.28
200.689	3122.46
200.764	3128.66
200.839	3147.44
200.914	3157.69
200.989	3144.62
201.063	3157.02
201.138	3140.38
201.213	3139.67
201.288	3119.4
201.363	3126.17
201.438	3122.79
201.512	3137.14
201.587	3119.25
201.662	3120.68
201.737	3128.88
201.812	3137.04
201.886	3102.3
201.961	3112.7
202.036	3099.4
202.111	3100.4
202.186	3071.52
202.26	3056.35
202.335	3035.7
202.41	3031.13
202.485	3011.39
202.559	2993.75
202.634	2969.77
202.709	2983.11
202.784	2965.61
202.858	2969.62
202.933	2952.31
203.008	2952.22
203.082	2934.3
203.157	2939.11
203.232	2899.23
203.306	2889.26
203.381	2860.32
203.456	2846.22
203.53	2828.04
203.605	2815.8
203.68	2800.2
203.754	2804.59
203.829	2793.57
203.904	2783.71
203.978	2781.52
204.053	2793.72
204.127	2793.34
204.202	2805.06
204.277	2797.63
204.351	2808.02
204.426	2814.17
204.5	2823.03
204.575	2803.07
204.65	2833.06
204.724	2843.93
204.799	2873.52
204.873	2889.21
204.948	2915.09
205.022	2926.29
205.097	2946.14
205.171	2990.38
205.246	3026.74
205.32	3056.86
205.395	3091.68
205.469	3113.51
205.544	3157.61
205.618	3180.22
205.693	3230.8
205.767	3261.63
205.842	3326.34
205.916	3364.33
205.991	3402.42
206.065	3458.37
206.14	3527.79
206.214	3574.23
206.289	3619.18
206.363	3690.2
206.438	3747.63
206.512	3813.81
206.586	3893.53
206.661	3962.14
206.735	4002.66
206.81	4071.05
206.884	4152.5
206.958	4208.39
207.033	4295.91
207.107	4377.36
207.181	4484.59
207.256	4549.86
207.33	4640.68
207.405	4733.36
207.479	4833.41
207.553	4919.23
207.628	4981.22
207.702	5068.32
207.776	5143.76
207.851	5228.6
207.925	5328.45
207.999	5415.53
208.073	5498.5
208.148	5588.53
208.222	5661.51
208.296	5783.27
208.371	5882.93
208.445	5986.6
208.519	6111.62
208.593	6219.34
208.668	6306.57
208.742	6404.11
208.816	6499.13
208.89	6612.37
208.965	6707.07
209.039	6807.42
209.113	6924.48
209.187	7045.44
209.261	7145.07
209.336	7265.72
209.41	7386.35
209.484	7482.79
209.558	7608.7
209.632	7721.05
209.707	7836.3
209.781	7968.78
209.855	8081.24
209.929	8205.23
210.003	8309.19
210.077	8402.77
210.151	8549.03
210.226	8682.64
210.3	8804.33
210.374	8927.09
210.448	9025.91
210.522	9127.68
210.596	9238.36
210.67	9341.01
210.744	9483.35
210.818	9612.67
210.892	9734.52
210.966	9827.17
211.041	9943.77
211.115	10027.29
211.189	10147.37
211.263	10256.52
211.337	10351.43
211.411	10452.36
211.485	10539.62
211.559	10644.79
211.633	10735.6
211.707	10796.46
211.781	10890.24
211.855	10945.61
211.929	11028.58
212.003	11099.8
212.077	11204.23
212.151	11304.33
212.225	11402.74
212.299	11480.34
212.373	11552.97
212.447	11625.41
212.52	11741.37
212.594	11819.99
212.668	11915.66
212.742	11983.86
212.816	12058.77
212.89	12133.33
212.964	12222.56
213.038	12295.44
213.112	12388.96
213.186	12494.95
213.26	12555.06
213.333	12585.04
213.407	12676.68
213.481	12762.63
213.555	12848.86
213.629	12914.76
213.703	12972.89
213.777	13048.1
213.85	13107.97
213.924	13215.47
213.998	13293.51
214.072	13360.52
214.146	13424.87
214.219	13496.27
214.293	13566.36
214.367	13643.78
214.441	13724.28
214.515	13775.53
214.588	13827.74
214.662	13861.09
214.736	13905.49
214.81	13975.97
214.883	14061.83
214.957	14114.51
215.031	14165.23
215.105	14207.7
215.178	14257.78
215.252	14317.36
215.326	14358.53
215.4	14399.27
215.473	14413.15
215.547	14452.92
215.621	14491.87
215.694	14561.04
215.768	14596.81
215.842	14639.71
215.915	14680.54
215.989	14711.92
216.063	14765.23
216.136	14817.92
216.21	14870.56
216.284	14934.14
216.357	14995.6
216.431	15040.86
216.504	15093.16
216.578	15165.32
216.652	15240.37
216.725	15284.33
216.799	15346.51
216.873	15397.27
216.946	15463.26
217.02	15514.11
217.093	15562.6
217.167	15600.63
217.24	15629.79
217.314	15683.25
217.387	15732.03
217.461	15777.14
217.535	15840.43
217.608	15883.9
217.682	15939.77
217.755	16002.09
217.829	16034.72
217.902	16082.48
217.976	16134.35
218.049	16177.96
218.123	16209.58
218.196	16255.47
218.27	16301.11
218.343	16338.94
218.417	16391.96
218.49	16426.37
218.563	16490.91
218.637	16548.31
218.71	16615.4
218.784	16675.84
218.857	16724.27
218.931	16775.6
219.004	16829.97
219.077	16879.32
219.151	16925.87
219.224	16967.8
219.298	17003.28
219.371	17060.77
219.444	17097.98
219.518	17137.74
219.591	17176.53
219.665	17253.16
219.738	17299.81
219.811	17337.4
219.885	17385.5
219.958	17432.05
220.031	17479.86
220.105	17530.32
220.178	17573.55
220.251	17606.9
220.325	17654.56
220.398	17705.79
220.471	17757.69
220.544	17809.16
220.618	17848.14
220.691	17899.08
220.764	17936.33
220.838	17991.56
220.911	18036.23
220.984	18090.74
221.057	18144.91
221.131	18202.64
221.204	18214.06
221.277	18265.58
221.35	18340.8
221.424	18376.03
221.497	18424.36
221.57	18469.61
221.643	18510.48
221.716	18558.14
221.79	18586.76
221.863	18621.89
221.936	18660.49
222.009	18693.6
222.082	18723.43
222.155	18758.37
222.229	18810.46
222.302	18867.28
222.375	18897.35
222.448	18942.4
222.521	18981.63
222.594	19013.48
222.667	19039.94
222.74	19094.54
222.814	19135.6
222.887	19165.62
222.96	19215.45
223.033	19256.46
223.106	19291.88
223.179	19328.16
223.252	19369.42
223.325	19414.91
223.398	19439.97
223.471	19473.41
223.544	19507.96
223.617	19539
223.69	19567.04
223.763	19573.55
223.837	19596.1
223.91	19642.7
223.983	19642.12
224.056	19643.66
224.129	19673.35
224.202	19705.01
224.275	19714.12
224.348	19729.68
224.42	19740.38
224.493	19741.1
224.566	19749.83
224.639	19770.65
224.712	19782.65
224.785	19790.07
224.858	19804.43
224.931	19833.44
225.004	19848.71
225.077	19860.91
225.15	19866.35
225.223	19885.1
225.296	19941.87
225.369	19942.74
225.442	19940.04
225.514	19965.72
225.587	20004.85
225.66	20021.96
225.733	20049.38
225.806	20073.91
225.879	20081.09
225.952	20082.39
226.025	20113.72
226.097	20147.12
226.17	20166.25
226.243	20163.16
226.316	20170.92
226.389	20194.44
226.461	20203.45
226.534	20218.87
226.607	20238.87
226.68	20267.55
226.753	20284.12
226.825	20256.03
226.898	20284.08
226.971	20291.64
227.044	20312.27
227.117	20310.87
227.189	20326.92
227.262	20335.69
227.335	20351.64
227.407	20360.56
227.48	20373.42
227.553	20380.51
227.626	20376.17
227.698	20378.29
227.771	20390.05
227.844	20398.72
227.916	20394.82
227.989	20383.11
228.062	20385.86
228.134	20410.63
228.207	20417.09
228.28	20416.12
228.352	20437.18
228.425	20443.5
228.498	20462.1
228.57	20446.24
228.643	20470.39
228.716	20471.16
228.788	20467.64
228.861	20459.88
228.934	20471.16
229.006	20480.65
229.079	20484.75
229.151	20485.09
229.224	20478.05
229.296	20483.35
229.369	20507.64
229.442	20532.03
229.514	20531.59
229.587	20550.1
229.659	20528.9
229.732	20527.35
229.804	20536.65
229.877	20553.91
229.949	20564.32
230.022	20581.57
230.094	20594.44
230.167	20604.95
230.239	20593.33
230.312	20595.6
230.384	20618.87
230.457	20630.78
230.529	20636.32
230.602	20636.85
230.674	20641.38
230.747	20656.9
230.819	20671.45
230.892	20639.5
230.964	20627.36
231.037	20635.31
231.109	20622.92
231.181	20635.02
231.254	20629.86
231.326	20622.29
231.399	20600.41
231.471	20592.22
231.544	20571.79
231.616	20571.11
231.688	20560.99
231.761	20547.98
231.833	20533.23
231.905	20502.63
231.978	20488.36
232.05	20472.12
232.122	20458.58
232.195	20437.18
232.267	20433.38
232.339	20410.92
232.412	20417.86
232.484	20409.95
232.556	20394.48
232.629	20395.54
232.701	20377.57
232.773	20361.62
232.846	20344.7
232.918	20344.41
232.99	20327.88
233.062	20323.98
233.135	20320.41
233.207	20286.68
233.279	20281.67
233.351	20275.98
233.424	20256.32
233.496	20225.91
233.568	20246.25
233.64	20223.21
233.713	20206.73
233.785	20191.31
233.857	20193.96
233.929	20160.22
234.001	20157.24
234.074	20165.62
234.146	20135.55
234.218	20127.31
234.29	20110.01
234.362	20091.84
234.434	20055.55
234.507	20023.41
234.579	19988.71
234.651	19967.31
234.723	19967.75
234.795	19963.46
234.867	19948.52
234.939	19945.29
235.012	19931.31
235.084	19913.63
235.156	19905.87
235.228	19894.21
235.3	19870.59
235.372	19844.43
235.444	19835.85
235.516	19790.84
235.588	19761.1
235.66	19744.43
235.732	19716.14
235.804	19751.9
235.876	19741.11
235.948	19737.59
236.02	19715.81
236.092	19689.01
236.164	19664.19
236.236	19626.03
236.308	19596.58
236.38	19576.63
236.452	19550.22
236.524	19538.66
236.596	19521.07
236.668	19505.75
236.74	19478.95
236.812	19461.75
236.884	19444.98
236.956	19423.58
237.028	19397.46
237.1	19363.05
237.172	19351.44
237.244	19341.66
237.316	19281.32
237.388	19238.05
237.46	19209.04
237.532	19208.8
237.604	19176.66
237.675	19162.34
237.747	19146.1
237.819	19115.07
237.891	19082.01
237.963	19041.53
238.035	19000.28
238.107	18936.62
238.178	18914.26
238.25	18884.77
238.322	18873.25
238.394	18829.11
238.466	18797.45
238.538	18781.84
238.609	18758.8
238.681	18705.65
238.753	18658.47
238.825	18619.92
238.897	18601.03
238.968	18585.46
239.04	18548.36
239.112	18551.68
239.184	18508.36
239.255	18474.43
239.327	18448.8
239.399	18420.03
239.471	18398.48
239.542	18376.75
239.614	18355.21
239.686	18296.75
239.758	18282.64
239.829	18227.12
239.901	18205.68
239.973	18173.72
240.044	18146.21
240.116	18124.14
240.188	18095.56
240.259	18070.21
240.331	18043.47
240.403	18017.78
240.474	17965.59
240.546	17926.7
240.618	17868.44
240.689	17835.28
240.761	17806.41
240.833	17793.35
240.904	17763.38
240.976	17730.08
241.048	17700.73
241.119	17679.52
241.191	17662.75
241.262	17637.5
241.334	17610.37
241.405	17579.77
241.477	17541.21
241.549	17501.36
241.62	17469.02
241.692	17445.6
241.763	17433.79
241.835	17392.2
241.906	17359.57
241.978	17318.37
242.049	17299.48
242.121	17285.84
242.192	17265.16
242.264	17217.07
242.335	17158.99
242.407	17134.56
242.478	17103.28
242.55	17075.9
242.621	17034.7
242.693	16994.46
242.764	16953.01
242.836	16918.41
242.907	16887.66
242.979	16867.75
243.05	16835.17
243.122	16796.09
243.193	16759.94
243.264	16695.6
243.336	16668.85
243.407	16654.78
243.479	16644.85
243.55	16612.03
243.622	16587.31
243.693	16559.98
243.764	16550.19
243.836	16515.25
243.907	16482.86
243.978	16448.06
244.05	16418.04
244.121	16373.36
244.192	16350.71
244.264	16304.2
244.335	16269.59
244.407	16219.27
244.478	16190.26
244.549	16156.95
244.62	16120.7
244.692	16094.24
244.763	16071.11
244.834	16038.62
244.906	15987.82
244.977	15961.17
245.048	15940.15
245.119	15884.72
245.191	15837.97
245.262	15782.35
245.333	15763.07
245.405	15730.73
245.476	15705.9
245.547	15678.53
245.618	15648.26
245.689	15615.91
245.761	15591.81
245.832	15565.54
245.903	15546.84
245.974	15513.44
246.045	15483.41
246.117	15470.35
246.188	15417.85
246.259	15373.94
246.33	15333.89
246.401	15308.24
246.473	15260.33
246.544	15221.96
246.615	15208.13
246.686	15175.01
246.757	15158.58
246.828	15114.47
246.899	15096.92
246.97	15048.38
247.042	15006.54
247.113	14987.26
247.184	14981.57
247.255	14942.1
247.326	14909.37
247.397	14871.09
247.468	14847.42
247.539	14820.72
247.61	14771.45
247.681	14763.16
247.752	14751.4
247.823	14708.69
247.894	14683.91
247.965	14640.48
248.037	14609.44
248.108	14568.66
248.179	14540.46
248.25	14513.08
248.321	14489.89
248.392	14452.58
248.463	14452.19
248.534	14423.56
248.605	14397.53
248.675	14353.81
248.746	14338.82
248.817	14320.45
248.888	14293.21
248.959	14239.71
249.03	14216.52
249.101	14198.15
249.172	14158.72
249.243	14113.17
249.314	14115.82
249.385	14079.95
249.456	14055.75
249.527	14026.06
249.598	14003.45
249.669	13977.13
249.739	13946.81
249.81	13929.69
249.881	13879.7
249.952	13844.13
250.023	13824.7
250.094	13785.6
250.165	13754.51
250.235	13725.54
250.306	13696.04
250.377	13661.81
250.448	13650.87
250.519	13603.87
250.59	13590.51
250.66	13566.02
250.731	13554.07
250.802	13519.36
250.873	13495.88
250.944	13480.7
251.014	13437.79
251.085	13434.32
251.156	13414.56
251.227	13404.48
251.297	13392.29
251.368	13383.08
251.439	13369.92
251.51	13348.66
251.58	13316.36
251.651	13285.22
251.722	13273.99
251.792	13233.78
251.863	13211.32
251.934	13197.92
252.005	13201.58
252.075	13174.92
252.146	13159.74
252.217	13153.13
252.287	13141.08
252.358	13115.58
252.429	13108.88
252.499	13088.15
252.57	13066.65
252.641	13052.14
252.711	13029.92
252.782	12994.73
252.852	12994.97
252.923	12974.68
252.994	12954.09
253.064	12948.69
253.135	12919.14
253.205	12879.76
253.276	12876.14
253.347	12872.82
253.417	12843.6
253.488	12821.48
253.558	12791.88
253.629	12773.51
253.699	12744.3
253.77	12727.14
253.841	12703.47
253.911	12682.65
253.982	12667.08
254.052	12655.75
254.123	12628.75
254.193	12607.88
254.264	12619.35
254.334	12583.05
254.405	12544.78
254.475	12510.89
254.546	12485.63
254.616	12476.28
254.687	12466.45
254.757	12449.91
254.827	12424.61
254.898	12405.52
254.968	12374.14
255.039	12344.2
255.109	12320.15
255.18	12292.92
255.25	12252.38
255.321	12246.3
255.391	12211.74
255.461	12210.3
255.532	12156.93
255.602	12131.72
255.673	12089.16
255.743	12050.7
255.813	12008.95
255.884	12003.36
255.954	11994.44
256.024	11990.59
256.095	11973.77
256.165	11937.95
256.235	11926.1
256.306	11904.21
256.376	11902.28
256.446	11894.96
256.517	11887.49
256.587	11883.44
256.657	11865.03
256.728	11850.23
256.798	11830.47
256.868	11807.76
256.938	11775.71
257.009	11765.16
257.079	11757.49
257.149	11766.99
257.219	11734.69
257.29	11714.69
257.36	11678.26
257.43	11668.76
257.5	11628.95
257.571	11604.75
257.641	11595.26
257.711	11560.22
257.781	11551.45
257.852	11534.91
257.922	11496.65
257.992	11476.69
258.062	11455.58
258.132	11448.01
258.202	11425.17
258.273	11405.84
258.343	11404.59
258.413	11385.65
258.483	11369.65
258.553	11340.15
258.623	11310.18
258.693	11294.03
258.764	11296.3
258.834	11291.86
258.904	11272.58
258.974	11249.89
259.044	11229.55
259.114	11219.19
259.184	11202.61
259.254	11179.77
259.324	11134.99
259.394	11125.6
259.464	11127.77
259.535	11105.79
259.605	11086.18
259.675	11060.92
259.745	11042.76
259.815	11011.82
259.885	10985.89
259.955	10996.98
260.025	10974.38
260.095	10961.99
260.165	10952.45
260.235	10950.91
260.305	10926.57
260.375	10900.55
260.445	10900.98
260.515	10905.08
260.585	10898.33
260.655	10878.82
260.725	10870.87
260.795	10871.73
260.865	10873.52
260.934	10845.23
261.004	10840.17
261.074	10817.09
261.144	10820.7
261.214	10818.15
261.284	10809.52
261.354	10810.1
261.424	10782.1
261.494	10784.85
261.564	10765.86
261.634	10763.07
261.703	10730.45
261.773	10723.02
261.843	10706.11
261.913	10693.78
