Data from 20250703_urea_0.1M_MAYP1162681_00-31-04-903.txt Node
Date: Fri Jul 04 00:31:04 BST 2025
User: adleo
Spectrometer: MAYP116268
Trigger mode: 0
Integration Time (sec): 1.000000E0
Scans to average: 1
Electric dark correction enabled: true
Nonlinearity correction enabled: true
Boxcar width: 10
XAxis mode: Wavelengths
Number of Pixels in Spectrum: 2068
>>>>>Begin Spectral Data<<<<<
179.565	1349.14
179.642	1412.45
179.718	1468.02
179.795	1513.01
179.871	1547.08
179.948	1568.39
180.024	1591.38
180.101	1619.68
180.177	1636.39
180.254	1662.91
180.33	1686.43
180.407	1751.16
180.483	1856.35
180.56	1959.37
180.636	2052.43
180.712	2038.68
180.789	2047.96
180.865	2064.65
180.942	2074.44
181.018	2084.05
181.095	2099.04
181.171	2104.32
181.248	2105.98
181.324	2117.55
181.4	2124.3
181.477	2137.39
181.553	2152.7
181.63	2173.78
181.706	2191.72
181.782	2200.37
181.859	2199.47
181.935	2207.18
182.011	2204.23
182.088	2222.17
182.164	2242.11
182.24	2259.66
182.317	2269.99
182.393	2269.42
182.469	2280.98
182.546	2297.26
182.622	2304.3
182.698	2300.06
182.775	2312.86
182.851	2328.86
182.927	2320.15
183.003	2317.67
183.08	2311.34
183.156	2320.53
183.232	2316.77
183.308	2300.25
183.385	2311.34
183.461	2331.71
183.537	2332.71
183.613	2346.71
183.69	2337.76
183.766	2326.57
183.842	2332.76
183.918	2339.52
183.995	2353.32
184.071	2357.84
184.147	2352.65
184.223	2341.9
184.299	2353.28
184.375	2341.71
184.452	2348.19
184.528	2404.18
184.604	2413.22
184.68	2428.36
184.756	2436.12
184.832	2442.64
184.908	2447.49
184.985	2443.5
185.061	2423.27
185.137	2433.17
185.213	2420.6
185.289	2421.22
185.365	2413.18
185.441	2411.75
185.517	2427.75
185.593	2423.42
185.669	2423.75
185.745	2434.99
185.822	2450.41
185.898	2440.41
185.974	2451.02
186.05	2441.78
186.126	2404.31
186.202	2400.12
186.278	2393.41
186.354	2381.79
186.43	2391.32
186.506	2391.03
186.582	2392.6
186.658	2402.17
186.734	2378.8
186.81	2383.84
186.886	2389.46
186.962	2399.98
187.038	2399.79
187.114	2388.36
187.19	2394.16
187.266	2381.36
187.341	2380.69
187.417	2375.84
187.493	2379.79
187.569	2384.69
187.645	2378.12
187.721	2366.22
187.797	2372.08
187.873	2379.17
187.949	2374.27
188.025	2365.27
188.101	2366.88
188.176	2369.31
188.252	2363.17
188.328	2373.88
188.404	2371.93
188.48	2364.26
188.556	2360.98
188.632	2357.5
188.707	2359.79
188.783	2360.79
188.859	2352.23
188.935	2338.76
189.011	2348.13
189.086	2337.57
189.162	2324.43
189.238	2321.29
189.314	2318.01
189.39	2313.48
189.465	2306.82
189.541	2323.34
189.617	2303.78
189.693	2299.26
189.768	2304.59
189.844	2332.16
189.92	2322.31
189.996	2330.74
190.071	2343.92
190.147	2341.83
190.223	2352.4
190.298	2342.16
190.374	2326.46
190.45	2341.25
190.526	2355.39
190.601	2345.54
190.677	2351.34
190.753	2384.49
190.828	2389.92
190.904	2407.91
190.98	2422.48
191.055	2432.62
191.131	2427.53
191.207	2454.85
191.282	2467.56
191.358	2456.85
191.433	2439.79
191.509	2454.02
191.585	2453.16
191.66	2455.35
191.736	2463.35
191.811	2453.73
191.887	2474.31
191.963	2497.97
192.038	2501.21
192.114	2498.02
192.189	2502.59
192.265	2495.69
192.34	2467.68
192.416	2463.63
192.491	2455.11
192.567	2456.58
192.642	2459.63
192.718	2457.44
192.793	2443.68
192.869	2439.21
192.944	2442.06
193.02	2448.16
193.095	2454.01
193.171	2457.68
193.246	2456.92
193.322	2452.87
193.397	2452.54
193.473	2433.34
193.548	2417.44
193.624	2426.49
193.699	2428.3
193.775	2448.87
193.85	2452.25
193.925	2465.06
194.001	2466.49
194.076	2460.06
194.152	2450.58
194.227	2440.49
194.302	2429.07
194.378	2432.64
194.453	2431.45
194.529	2444.16
194.604	2432.21
194.679	2424.4
194.755	2405.31
194.83	2415.41
194.905	2415.46
194.981	2424.74
195.056	2417.75
195.131	2423.03
195.207	2420.37
195.282	2406.61
195.357	2385.13
195.433	2400.93
195.508	2387.03
195.583	2395.03
195.659	2412.41
195.734	2420.45
195.809	2420.98
195.884	2432.59
195.96	2433.5
196.035	2447.68
196.11	2444.59
196.185	2455.25
196.261	2457.01
196.336	2490.2
196.411	2478.1
196.486	2480.48
196.561	2473.25
196.637	2483.81
196.712	2502.15
196.787	2505.72
196.862	2523.96
196.937	2531.91
197.013	2534.86
197.088	2546.67
197.163	2569.63
197.238	2586.98
197.313	2588.7
197.388	2603.94
197.464	2635.19
197.539	2647.72
197.614	2639.29
197.689	2656.54
197.764	2674.93
197.839	2701.03
197.914	2693.65
197.989	2721.81
198.065	2740.05
198.14	2796.36
198.215	2824.19
198.29	2832.43
198.365	2848.44
198.44	2862.74
198.515	2894.1
198.59	2912.74
198.665	2943.91
198.74	2954.64
198.815	2956.59
198.89	2976.9
198.965	3009.42
199.04	3004.8
199.115	3021.58
199.19	3065.86
199.265	3067.91
199.34	3077.97
199.415	3112.89
199.49	3140.02
199.565	3145.36
199.64	3172.21
199.715	3169.4
199.79	3179.94
199.865	3193.24
199.94	3191.29
200.015	3222.3
200.09	3229.31
200.165	3238.81
200.24	3245.01
200.315	3288.32
200.39	3303.39
200.464	3314.13
200.539	3314.65
200.614	3332.49
200.689	3360.88
200.764	3371.24
200.839	3393.47
200.914	3403.01
200.989	3391.08
201.063	3404.15
201.138	3385.8
201.213	3386.7
201.288	3365.42
201.363	3371.67
201.438	3369.29
201.512	3387.08
201.587	3370.61
201.662	3376.72
201.737	3392.42
201.812	3401.44
201.886	3364.77
201.961	3379.47
202.036	3366.93
202.111	3364.35
202.186	3333.12
202.26	3309.73
202.335	3288.3
202.41	3278.48
202.485	3260.3
202.559	3241.75
202.634	3215.75
202.709	3227.76
202.784	3210.54
202.858	3213.64
202.933	3197.32
203.008	3193.79
203.082	3176
203.157	3175.67
203.232	3132.33
203.306	3114.05
203.381	3084.18
203.456	3069.59
203.53	3051.02
203.605	3037.34
203.68	3023.84
203.754	3028.03
203.829	3023.83
203.904	3010.15
203.978	3013.06
204.053	3033.09
204.127	3034.14
204.202	3049.5
204.277	3048.12
204.351	3057.27
204.426	3072.26
204.5	3081.17
204.575	3067.44
204.65	3105.62
204.724	3127.29
204.799	3162.99
204.873	3185.09
204.948	3217.72
205.022	3238.04
205.097	3262.35
205.171	3313.35
205.246	3357.61
205.32	3399.79
205.395	3443.13
205.469	3481.44
205.544	3531.26
205.618	3557.53
205.693	3621.86
205.767	3661.65
205.842	3737.98
205.916	3786.56
205.991	3833.92
206.065	3902.44
206.14	3985.08
206.214	4045.01
206.289	4103.16
206.363	4190.71
206.438	4267.34
206.512	4347.13
206.586	4442.61
206.661	4533.37
206.735	4593.84
206.81	4679.94
206.884	4783.62
206.958	4859.25
207.033	4968.3
207.107	5068.45
207.181	5199.16
207.256	5283.77
207.33	5403.1
207.405	5520.84
207.479	5648.8
207.553	5760.98
207.628	5848.04
207.702	5963.39
207.776	6060.58
207.851	6175.97
207.925	6300.07
207.999	6409.66
208.073	6524.3
208.148	6646.22
208.222	6747.42
208.296	6895.27
208.371	7026.26
208.445	7152.21
208.519	7296.58
208.593	7429.76
208.668	7552.55
208.742	7677.07
208.816	7805.18
208.89	7940.14
208.965	8061.91
209.039	8189.3
209.113	8332.72
209.187	8480.18
209.261	8598.96
209.336	8750.02
209.41	8892.24
209.484	9019
209.558	9168.52
209.632	9312.47
209.707	9449.41
209.781	9599.49
209.855	9747.54
209.929	9897.54
210.003	10033.51
210.077	10161.68
210.151	10332.86
210.226	10485.44
210.3	10641.32
210.374	10794.81
210.448	10921.73
210.522	11055.98
210.596	11191
210.67	11319.24
210.744	11497.55
210.818	11660.77
210.892	11798.95
210.966	11919
211.041	12058.05
211.115	12175.71
211.189	12313.51
211.263	12446.35
211.337	12571.24
211.411	12699.56
211.485	12807.93
211.559	12937.02
211.633	13055.89
211.707	13141.26
211.781	13264.09
211.855	13335.82
211.929	13432.37
212.003	13521.65
212.077	13643.18
212.151	13765.09
212.225	13881.26
212.299	13970.59
212.373	14064.01
212.447	14158.83
212.52	14291.4
212.594	14396.39
212.668	14508.32
212.742	14593.74
212.816	14687.49
212.89	14784.14
212.964	14881.61
213.038	14992.91
213.112	15106.38
213.186	15225.82
213.26	15299.04
213.333	15350.96
213.407	15450.64
213.481	15560.64
213.555	15673.33
213.629	15746.89
213.703	15817.21
213.777	15913.51
213.85	15986.87
213.924	16110.98
213.998	16215.52
214.072	16293.17
214.146	16361.75
214.219	16440.8
214.293	16520.13
214.367	16606.11
214.441	16700.58
214.515	16774.32
214.588	16825.79
214.662	16863.77
214.736	16923.72
214.81	17008.02
214.883	17091.39
214.957	17155.06
215.031	17206.39
215.105	17253.04
215.178	17319.84
215.252	17388.22
215.326	17438.68
215.4	17484.18
215.473	17506.1
215.547	17546.39
215.621	17608.12
215.694	17673.28
215.768	17721.38
215.842	17776.75
215.915	17823.93
215.989	17854
216.063	17903.59
216.136	17960.07
216.21	18018.28
216.284	18080.21
216.357	18144.98
216.431	18202.95
216.504	18271.91
216.578	18349.98
216.652	18417.45
216.725	18475.37
216.799	18540.23
216.873	18587.99
216.946	18652.13
217.02	18688.85
217.093	18747.31
217.167	18768.61
217.24	18808.8
217.314	18847.21
217.387	18885.81
217.461	18935.78
217.535	18998.62
217.608	19042.57
217.682	19082.66
217.755	19141.89
217.829	19179.04
217.902	19220.44
217.976	19261.93
218.049	19302.17
218.123	19343.71
218.196	19394.5
218.27	19430.3
218.343	19460.18
218.417	19505.24
218.49	19546.63
218.563	19609.28
218.637	19644.12
218.71	19712.51
218.784	19771.25
218.857	19830.14
218.931	19889.27
219.004	19933.51
219.077	19983.24
219.151	20018.28
219.224	20068.78
219.298	20110.71
219.371	20169.26
219.444	20203.33
219.518	20257.16
219.591	20301.84
219.665	20366.47
219.738	20405.5
219.811	20433.69
219.885	20485.94
219.958	20535.19
220.031	20574.61
220.105	20631
220.178	20685.65
220.251	20722.18
220.325	20778.57
220.398	20821.95
220.471	20867.49
220.544	20913.66
220.618	20946.1
220.691	20987.11
220.764	21022.34
220.838	21068.71
220.911	21098.78
220.984	21158.88
221.057	21193.34
221.131	21226.69
221.204	21225.97
221.277	21281.4
221.35	21348.25
221.424	21369.17
221.497	21402.52
221.57	21436.21
221.643	21471.88
221.716	21504.41
221.79	21527.84
221.863	21538.73
221.936	21567.07
222.009	21592.62
222.082	21630.12
222.155	21644.34
222.229	21687.48
222.302	21725.85
222.375	21745.56
222.448	21774.63
222.521	21800.22
222.594	21821.43
222.667	21839.41
222.74	21881.97
222.814	21907.47
222.887	21929.84
222.96	21968.5
223.033	22001.23
223.106	22032.13
223.179	22056.96
223.252	22078.75
223.325	22105.45
223.398	22124.68
223.471	22148.06
223.544	22168.69
223.617	22174.48
223.69	22208.51
223.763	22221.33
223.837	22240.09
223.91	22265.54
223.983	22260.48
224.056	22263.42
224.129	22284.39
224.202	22316.45
224.275	22325.85
224.348	22325.12
224.42	22319.29
224.493	22309.65
224.566	22311.24
224.639	22324.16
224.712	22316.78
224.785	22314.37
224.858	22322.81
224.931	22318.86
225.004	22313.89
225.077	22320.35
225.15	22301.07
225.223	22306.95
225.296	22335.25
225.369	22319.15
225.442	22312.06
225.514	22328.21
225.587	22341.85
225.66	22346.72
225.733	22345.52
225.806	22348.94
225.879	22349.86
225.952	22350.53
226.025	22378.3
226.097	22400.77
226.17	22403.03
226.243	22388.86
226.316	22400.86
226.389	22402.65
226.461	22427.72
226.534	22444.01
226.607	22442.08
226.68	22478.77
226.753	22476.98
226.825	22450.32
226.898	22466.38
226.971	22462.66
227.044	22452.06
227.117	22445.98
227.189	22447
227.262	22458.13
227.335	22457.8
227.407	22449.99
227.48	22447.38
227.553	22446.13
227.626	22442.22
227.698	22431.72
227.771	22435.96
227.844	22412.38
227.916	22408.29
227.989	22373.48
228.062	22361.77
228.134	22373.05
228.207	22356.46
228.28	22339.78
228.352	22334.62
228.425	22329.66
228.498	22336.12
228.57	22329.51
228.643	22339.3
228.716	22325.85
228.788	22304.4
228.861	22294.13
228.934	22296.68
229.006	22295.29
229.079	22273.35
229.151	22243.08
229.224	22218.97
229.296	22217.77
229.369	22236.52
229.442	22236.81
229.514	22232.42
229.587	22231.65
229.659	22208.22
229.732	22198.49
229.804	22205.96
229.877	22221.14
229.949	22218.06
230.022	22223.7
230.094	22214.68
230.167	22199.31
230.239	22178.24
230.312	22171.25
230.384	22180.46
230.457	22173.37
230.529	22157.71
230.602	22152.6
230.674	22154.28
230.747	22173.95
230.819	22181.28
230.892	22139.48
230.964	22128.35
231.037	22124.49
231.109	22111.57
231.181	22103.43
231.254	22080.92
231.326	22060.62
231.399	22037.14
231.471	22010.15
231.544	21974.24
231.616	21973.56
231.688	21956.69
231.761	21939.43
231.833	21913.4
231.905	21869.73
231.978	21852.91
232.05	21840.23
232.122	21832.57
232.195	21800.66
232.267	21790.34
232.339	21750.14
232.412	21752.89
232.484	21736.11
232.556	21708.11
232.629	21705.5
232.701	21698.27
232.773	21688.39
232.846	21649.16
232.918	21631.37
232.99	21626.12
233.062	21624.67
233.135	21608.43
233.207	21574.16
233.279	21566.25
233.351	21551.79
233.424	21531.74
233.496	21498.53
233.568	21499.02
233.64	21451.68
233.713	21434.24
233.785	21403.48
233.857	21393.27
233.929	21355.05
234.001	21341.6
234.074	21339.48
234.146	21298.85
234.218	21277.06
234.29	21254.26
234.362	21242.45
234.434	21199.32
234.507	21160.9
234.579	21110.15
234.651	21074.82
234.723	21061.86
234.795	21044.36
234.867	21021.13
234.939	21013.18
235.012	20988.36
235.084	20960.31
235.156	20947.73
235.228	20916.11
235.3	20880.88
235.372	20858.09
235.444	20846.71
235.516	20795.82
235.588	20760.2
235.66	20740.06
235.732	20703.14
235.804	20731.29
235.876	20711.09
235.948	20697.7
236.02	20665.98
236.092	20634.51
236.164	20615.38
236.236	20580.83
236.308	20539.77
236.38	20517.07
236.452	20478.71
236.524	20459.38
236.596	20445.21
236.668	20415.91
236.74	20387.43
236.812	20368.78
236.884	20339.24
236.956	20305.12
237.028	20265.6
237.1	20229.99
237.172	20216.2
237.244	20203.58
237.316	20140.3
237.388	20106.23
237.46	20074.8
237.532	20065.79
237.604	20032.83
237.675	20016.06
237.747	19997.55
237.819	19960.78
237.891	19925.17
237.963	19886.72
238.035	19853.08
238.107	19778.53
238.178	19768.74
238.25	19729.47
238.322	19716.41
238.394	19662.15
238.466	19630.58
238.538	19606.54
238.609	19583.55
238.681	19526.68
238.753	19473.39
238.825	19430.16
238.897	19398.5
238.968	19383.61
239.04	19332.72
239.112	19329.35
239.184	19273.97
239.255	19227.23
239.327	19206.17
239.399	19174.03
239.471	19152.73
239.542	19122.32
239.614	19113.89
239.686	19052.4
239.758	19041.41
239.829	18994.81
239.901	18981.17
239.973	18945.42
240.044	18915.39
240.116	18882.96
240.188	18840.65
240.259	18808.22
240.331	18766.3
240.403	18737.28
240.474	18683.41
240.546	18642.25
240.618	18586.64
240.689	18548.28
240.761	18520
240.833	18505.2
240.904	18461.3
240.976	18420.29
241.048	18383.09
241.119	18344.87
241.191	18321.02
241.262	18298.85
241.334	18257.17
241.405	18216.64
241.477	18181.65
241.549	18157.17
241.62	18119.2
241.692	18098.23
241.763	18076.64
241.835	18037.18
241.906	18006.77
241.978	17955.83
242.049	17941.9
242.121	17917.13
242.192	17905.47
242.264	17855.54
242.335	17792.6
242.407	17765.95
242.478	17730.49
242.55	17699.55
242.621	17659.79
242.693	17612.7
242.764	17565.96
242.836	17524.9
242.907	17505.14
242.979	17474.25
243.05	17435.98
243.122	17406.73
243.193	17367.65
243.264	17312.37
243.336	17287.69
243.407	17262.92
243.479	17249.24
243.55	17214.73
243.622	17189.43
243.693	17144.13
243.764	17132.13
243.836	17085.42
243.907	17051.64
243.978	17012.51
244.05	16987.78
244.121	16932.84
244.192	16914.81
244.264	16861.27
244.335	16838.62
244.407	16783
244.478	16752.45
244.549	16712.93
244.62	16668.1
244.692	16628.15
244.763	16605.4
244.834	16560.24
244.906	16510.84
244.977	16483.08
245.048	16463.94
245.119	16413.34
245.191	16370.06
245.262	16308.51
245.333	16302.1
245.405	16270.82
245.476	16247.25
245.547	16205.08
245.618	16196.88
245.689	16171.24
245.761	16150.13
245.832	16109.65
245.903	16079.91
245.974	16056.53
246.045	16021.06
246.117	16008.43
246.188	15969.82
246.259	15918.53
246.33	15892.41
246.401	15855.87
246.473	15805.12
246.544	15760.73
246.615	15739.09
246.686	15708.14
246.757	15689.2
246.828	15637.72
246.899	15618.39
246.97	15564.55
247.042	15527.58
247.113	15494.08
247.184	15475.77
247.255	15437.74
247.326	15412.62
247.397	15376.33
247.468	15336.71
247.539	15316.41
247.61	15258.14
247.681	15238.13
247.752	15232.25
247.823	15189.83
247.894	15163.95
247.965	15122.4
248.037	15087.74
248.108	15046.19
248.179	15027.78
248.25	15001.46
248.321	14988.88
248.392	14943.32
248.463	14939.56
248.534	14912.76
248.605	14888.32
248.675	14854
248.746	14830.14
248.817	14801.75
248.888	14786.28
248.959	14743.04
249.03	14719.95
249.101	14702.21
249.172	14671.84
249.243	14613.13
249.314	14605.17
249.385	14580.88
249.456	14567.33
249.527	14540.53
249.598	14520.43
249.669	14486.73
249.739	14467.6
249.81	14441.66
249.881	14410.18
249.952	14385.36
250.023	14356.15
250.094	14309.19
250.165	14267.16
250.235	14232.84
250.306	14208.06
250.377	14169.45
250.448	14143.03
250.519	14084.99
250.59	14074.87
250.66	14036.93
250.731	14036.78
250.802	14007.47
250.873	13983.42
250.944	13956.81
251.014	13919.4
251.085	13914.68
251.156	13890.67
251.227	13876.93
251.297	13865.12
251.368	13841.02
251.439	13827.91
251.51	13820.63
251.58	13783.75
251.651	13753.91
251.722	13754.2
251.792	13712.02
251.863	13685.26
251.934	13689.7
252.005	13705.46
252.075	13681.07
252.146	13675.14
252.217	13661.06
252.287	13641.73
252.358	13619.36
252.429	13619.03
252.499	13592.27
252.57	13569.47
252.641	13552.36
252.711	13516.44
252.782	13466.55
252.852	13467.66
252.923	13432.76
252.994	13410.73
253.064	13410.87
253.135	13386.57
253.205	13347.77
253.276	13342.71
253.347	13341.65
253.417	13304.09
253.488	13270.11
253.558	13239.83
253.629	13219.59
253.699	13202.47
253.77	13194.47
253.841	13168.1
253.911	13145.3
253.982	13132.62
254.052	13117.77
254.123	13097.14
254.193	13083.45
254.264	13108.52
254.334	13074.68
254.405	13043.2
254.475	13009.31
254.546	12984.87
254.616	12975.42
254.687	12961.83
254.757	12945.25
254.827	12916.85
254.898	12900.75
254.968	12885.08
255.039	12854.38
255.109	12837.84
255.18	12800.87
255.25	12746.45
255.321	12732.42
255.391	12696.07
255.461	12698.53
255.532	12646.9
255.602	12624.97
255.673	12579.99
255.743	12541.77
255.813	12498.82
255.884	12496.89
255.954	12485.13
256.024	12488.84
256.095	12470.71
256.165	12437.55
256.235	12421.11
256.306	12394.26
256.376	12386.65
256.446	12371.12
256.517	12369.1
256.587	12362.54
256.657	12345.82
256.728	12335.7
256.798	12312.61
256.868	12295.83
256.938	12260.83
257.009	12257.8
257.079	12245.84
257.149	12260.02
257.219	12224.49
257.29	12212.78
257.36	12169.3
257.43	12162.89
257.5	12113.34
257.571	12081.81
257.641	12077.52
257.711	12044.74
257.781	12032.89
257.852	12020.74
257.922	11972.59
257.992	11945.4
258.062	11921.3
258.132	11908.91
258.202	11890.02
258.273	11877.73
258.343	11869.68
258.413	11843.51
258.483	11822.49
258.553	11793.57
258.623	11764.07
258.693	11754.87
258.764	11753.27
258.834	11742.19
258.904	11720.98
258.974	11697.08
259.044	11681.8
259.114	11659.34
259.184	11645.46
259.254	11619.48
259.324	11566.46
259.394	11561.64
259.464	11559.37
259.535	11541.69
259.605	11524
259.675	11491.18
259.745	11474.89
259.815	11446.74
259.885	11421.49
259.955	11435.66
260.025	11407.99
260.095	11380.33
260.165	11364.33
260.235	11363.56
260.305	11339.46
260.375	11304.28
260.445	11313.48
260.515	11316.66
260.585	11311.75
260.655	11298.98
260.725	11294.3
260.795	11292.71
260.865	11299.07
260.934	11278.73
261.004	11267.21
261.074	11247.79
261.144	11262.2
261.214	11257.53
261.284	11238.44
261.354	11238.44
261.424	11203.45
261.494	11202.29
261.564	11190.73
261.634	11182.97
261.703	11143.45
261.773	11140.99
261.843	11135.4
