Data from 20250703_urea_0.1M_MAYP1162681_04-31-05-705.txt Node
Date: Fri Jul 04 04:31:05 BST 2025
User: adleo
Spectrometer: MAYP116268
Trigger mode: 0
Integration Time (sec): 1.000000E0
Scans to average: 1
Electric dark correction enabled: true
Nonlinearity correction enabled: true
Boxcar width: 10
XAxis mode: Wavelengths
Number of Pixels in Spectrum: 2068
>>>>>Begin Spectral Data<<<<<
179.565	1279.58
179.642	1337.56
179.718	1384.01
179.795	1426.18
179.871	1459.6
179.948	1477.49
180.024	1501.61
180.101	1523.82
180.177	1538.97
180.254	1564.49
180.33	1588.85
180.407	1647.12
180.483	1747.51
180.56	1843.72
180.636	1933.7
180.712	1918.9
180.789	1929.41
180.865	1941.91
180.942	1950.52
181.018	1963.26
181.095	1979.2
181.171	1985.33
181.248	1987.8
181.324	2004.45
181.4	2011.97
181.477	2026.33
181.553	2043.35
181.63	2063.23
181.706	2079.64
181.782	2086.2
181.859	2084.96
181.935	2087.3
182.011	2082.59
182.088	2101.33
182.164	2120.13
182.24	2132.3
182.317	2145.28
182.393	2143.29
182.469	2159.27
182.546	2177.92
182.622	2181.06
182.698	2174.02
182.775	2182.72
182.851	2199.61
182.927	2190.38
183.003	2185.01
183.08	2175.78
183.156	2183.06
183.232	2176.68
183.308	2167.69
183.385	2178.77
183.461	2195.57
183.537	2199.14
183.613	2214.6
183.69	2204.89
183.766	2195.09
183.842	2205.51
183.918	2212.17
183.995	2227.35
184.071	2232.15
184.147	2222.64
184.223	2212.74
184.299	2225.64
184.375	2215.51
184.452	2220.55
184.528	2271.43
184.604	2282.37
184.68	2297.12
184.756	2304.87
184.832	2312.54
184.908	2314.25
184.985	2313.72
185.061	2296.07
185.137	2306.26
185.213	2293.89
185.289	2295.41
185.365	2286.75
185.441	2282.14
185.517	2292.28
185.593	2287.04
185.669	2281.04
185.745	2291.75
185.822	2309.73
185.898	2301.88
185.974	2311.49
186.05	2301.68
186.126	2267.66
186.202	2262.61
186.278	2256.71
186.354	2247.19
186.43	2254.19
186.506	2255.48
186.582	2255.52
186.658	2263.61
186.734	2242.87
186.81	2247.81
186.886	2250.24
186.962	2265.51
187.038	2264.56
187.114	2257.56
187.19	2263.13
187.266	2252.52
187.341	2253.76
187.417	2243.15
187.493	2243.24
187.569	2244.67
187.645	2239.48
187.721	2227.78
187.797	2231.2
187.873	2237.67
187.949	2233.96
188.025	2226.44
188.101	2227.49
188.176	2231.91
188.252	2227.82
188.328	2236.19
188.404	2235
188.48	2232.15
188.556	2223.82
188.632	2221.68
188.707	2220.11
188.783	2219.92
188.859	2214.16
188.935	2204.26
189.011	2216.3
189.086	2210.17
189.162	2202.98
189.238	2200.55
189.314	2197.27
189.39	2193.04
189.465	2184.09
189.541	2197.99
189.617	2180.62
189.693	2177.82
189.768	2180.43
189.844	2207.52
189.92	2200.34
189.996	2209.66
190.071	2218.61
190.147	2217.47
190.223	2227.51
190.298	2220.32
190.374	2207.43
190.45	2221.27
190.526	2232.5
190.601	2225.84
190.677	2228.03
190.753	2256.55
190.828	2259.64
190.904	2279.35
190.98	2294.77
191.055	2307.19
191.131	2300.48
191.207	2324.69
191.282	2334.21
191.358	2326.41
191.433	2311.5
191.509	2323.77
191.585	2317.68
191.66	2320.3
191.736	2328.39
191.811	2318.16
191.887	2336.39
191.963	2359.38
192.038	2363.04
192.114	2359.81
192.189	2362.33
192.265	2359.28
192.34	2334.9
192.416	2335.85
192.491	2330.85
192.567	2335.85
192.642	2338.81
192.718	2337.76
192.793	2323.91
192.869	2317.01
192.944	2320.01
193.02	2326.67
193.095	2328.62
193.171	2338.76
193.246	2335.62
193.322	2333.43
193.397	2335.29
193.473	2320.72
193.548	2303.49
193.624	2312.06
193.699	2310.82
193.775	2328.48
193.85	2328.91
193.925	2338.81
194.001	2337.43
194.076	2324.44
194.152	2311.87
194.227	2302.16
194.302	2292.45
194.378	2297.5
194.453	2298.54
194.529	2308.63
194.604	2292.02
194.679	2285.31
194.755	2264.81
194.83	2278.71
194.905	2279.23
194.981	2288.56
195.056	2282.71
195.131	2289.37
195.207	2288.13
195.282	2279.47
195.357	2259.43
195.433	2272.66
195.508	2261.76
195.583	2267.76
195.659	2286.75
195.734	2294.03
195.809	2295.17
195.884	2306.54
195.96	2309.26
196.035	2326.44
196.11	2324.39
196.185	2337.91
196.261	2343.57
196.336	2375.6
196.411	2358.7
196.486	2364.7
196.561	2356.51
196.637	2365.08
196.712	2382.36
196.787	2383.41
196.862	2397.88
196.937	2409.73
197.013	2416.49
197.088	2426.92
197.163	2453.54
197.238	2470.93
197.313	2471.31
197.388	2485.69
197.464	2513.7
197.539	2522.89
197.614	2515.22
197.689	2526.84
197.764	2545.03
197.839	2569.37
197.914	2561.51
197.989	2585.8
198.065	2598.56
198.14	2652.46
198.215	2677.56
198.29	2686.57
198.365	2702.48
198.44	2715.58
198.515	2744.26
198.59	2759.94
198.665	2789.72
198.74	2794.53
198.815	2797.2
198.89	2819.54
198.965	2849.62
199.04	2847.29
199.115	2864.35
199.19	2908.91
199.265	2913.81
199.34	2923.58
199.415	2957.21
199.49	2981.61
199.565	2994.38
199.64	3017.03
199.715	3014.98
199.79	3024.99
199.865	3034.05
199.94	3032.28
200.015	3064.85
200.09	3072.63
200.165	3080.78
200.24	3087.31
200.315	3129.65
200.39	3142
200.464	3152.16
200.539	3152.78
200.614	3170.95
200.689	3194.41
200.764	3201.14
200.839	3219.06
200.914	3225.17
200.989	3216.15
201.063	3229.22
201.138	3209.77
201.213	3208.53
201.288	3188.07
201.363	3195.03
201.438	3195.7
201.512	3214.06
201.587	3195.31
201.662	3194.98
201.737	3210.19
201.812	3215.49
201.886	3181.21
201.961	3192.95
202.036	3180.37
202.111	3180.51
202.186	3150.05
202.26	3134.83
202.335	3112.17
202.41	3106.12
202.485	3087.81
202.559	3067.73
202.634	3042.65
202.709	3052.8
202.784	3037.4
202.858	3040.12
202.933	3022.52
203.008	3021.09
203.082	3001.69
203.157	3002.74
203.232	2965.61
203.306	2948.39
203.381	2922.16
203.456	2905.67
203.53	2887.49
203.605	2871.34
203.68	2856.79
203.754	2857.46
203.829	2848.31
203.904	2839.3
203.978	2840.68
204.053	2857.51
204.127	2856.55
204.202	2868.57
204.277	2867.47
204.351	2877.58
204.426	2888.02
204.5	2898.18
204.575	2879.49
204.65	2911.68
204.724	2927.86
204.799	2957.78
204.873	2977.48
204.948	3002.9
205.022	3019.96
205.097	3042.39
205.171	3090.98
205.246	3130.93
205.32	3167.3
205.395	3208.86
205.469	3237.62
205.544	3281.97
205.618	3306.73
205.693	3363.34
205.767	3397.61
205.842	3466.03
205.916	3507.79
205.991	3547.62
206.065	3606.26
206.14	3681.15
206.214	3735.16
206.289	3785.86
206.363	3862.69
206.438	3926.6
206.512	3998.48
206.586	4081.55
206.661	4157.31
206.735	4204.78
206.81	4273.38
206.884	4364.25
206.958	4425.33
207.033	4517.35
207.107	4604.92
207.181	4719.96
207.256	4799.1
207.33	4902.51
207.405	5004.77
207.479	5112.53
207.553	5210.09
207.628	5278.96
207.702	5376.13
207.776	5453.1
207.851	5554.62
207.925	5659.94
207.999	5754.16
208.073	5846.05
208.148	5952.12
208.222	6042.57
208.296	6176.3
208.371	6295.07
208.445	6406.44
208.519	6538.93
208.593	6654.25
208.668	6756.61
208.742	6861.84
208.816	6964.29
208.89	7085.52
208.965	7185.89
209.039	7299.04
209.113	7423.38
209.187	7555.99
209.261	7663.8
209.336	7800.68
209.41	7925.95
209.484	8041.35
209.558	8175.8
209.632	8300.22
209.707	8412.61
209.781	8541.32
209.855	8664.04
209.929	8793.1
210.003	8906.93
210.077	9007.87
210.151	9165.31
210.226	9295.26
210.3	9429.43
210.374	9560.24
210.448	9673.32
210.522	9789.68
210.596	9911.49
210.67	10024.68
210.744	10180.02
210.818	10317.92
210.892	10446.17
210.966	10547.63
211.041	10661.29
211.115	10756.15
211.189	10885.67
211.263	11011.62
211.337	11119.85
211.411	11245.68
211.485	11340.91
211.559	11456.91
211.633	11564.81
211.707	11638.26
211.781	11755.38
211.855	11823.88
211.929	11913.91
212.003	11993.1
212.077	12109.69
212.151	12207.45
212.225	12317.92
212.299	12403.1
212.373	12486.83
212.447	12578.27
212.52	12699.94
212.594	12793.94
212.668	12907.46
212.742	12983
212.816	13066.39
212.89	13156.73
212.964	13237.67
213.038	13333.12
213.112	13431.26
213.186	13538.23
213.26	13607.79
213.333	13643.61
213.407	13731.73
213.481	13822.26
213.555	13919.59
213.629	13978.55
213.703	14056.45
213.777	14140.57
213.85	14197.21
213.924	14317.43
213.998	14392.87
214.072	14466.96
214.146	14533.87
214.219	14600.01
214.293	14674.87
214.367	14747.95
214.441	14829.7
214.515	14897.04
214.588	14942.06
214.662	14980.39
214.736	15027.82
214.81	15096.36
214.883	15178.84
214.957	15230.9
215.031	15285.56
215.105	15326.2
215.178	15390.26
215.252	15448.29
215.326	15482.08
215.4	15530.48
215.473	15536.5
215.547	15578.97
215.621	15617.77
215.694	15684.43
215.768	15723.04
215.842	15769.36
215.915	15817.31
215.989	15841.37
216.063	15879.35
216.136	15936.41
216.21	15990.83
216.284	16057.01
216.357	16118.85
216.431	16167.96
216.504	16235.53
216.578	16318.53
216.652	16381.72
216.725	16434.97
216.799	16494.5
216.873	16557.54
216.946	16618.31
217.02	16665.64
217.093	16719.24
217.167	16749.17
217.24	16786.71
217.314	16835.05
217.387	16878.33
217.461	16930.04
217.535	17004.46
217.608	17043.35
217.682	17107.01
217.755	17164.85
217.829	17196.56
217.902	17244.94
217.976	17294.05
218.049	17335.79
218.123	17361.14
218.196	17413.91
218.27	17451.31
218.343	17483.26
218.417	17527.98
218.49	17571.59
218.563	17634.68
218.637	17682.87
218.71	17755.21
218.784	17816.7
218.857	17880.46
218.931	17932.46
219.004	17968.79
219.077	18016.55
219.151	18072.55
219.224	18103.05
219.298	18146.23
219.371	18207.67
219.444	18239
219.518	18289.21
219.591	18337.6
219.665	18407.57
219.738	18455.32
219.811	18499.71
219.885	18558.64
219.958	18605.53
220.031	18650.49
220.105	18704.42
220.178	18756.51
220.251	18796.75
220.325	18839.83
220.398	18885.47
220.471	18936.84
220.544	18992.64
220.618	19017.8
220.691	19064.45
220.764	19111.67
220.838	19158.99
220.911	19186.75
220.984	19255.76
221.057	19306.65
221.131	19347.66
221.204	19363.17
221.277	19424.42
221.35	19491.99
221.424	19523.45
221.497	19563.31
221.57	19598.63
221.643	19640.85
221.716	19681.18
221.79	19714.34
221.863	19752.02
221.936	19782.33
222.009	19819.68
222.082	19856.84
222.155	19897.32
222.229	19948.78
222.302	19988.3
222.375	20021.7
222.448	20076.39
222.521	20091.77
222.594	20117.84
222.667	20141.16
222.74	20181.98
222.814	20204.78
222.887	20220.25
222.96	20251.62
223.033	20294.85
223.106	20335.67
223.179	20366.12
223.252	20394.94
223.325	20416.78
223.398	20447.19
223.471	20467.14
223.544	20492.29
223.617	20524.87
223.69	20540.68
223.763	20546.17
223.837	20574.22
223.91	20599.57
223.983	20598.7
224.056	20612.34
224.129	20632.87
224.202	20666.32
224.275	20685.36
224.348	20688.44
224.42	20696.44
224.493	20703.96
224.566	20700.44
224.639	20714.32
224.712	20713.07
224.785	20722.03
224.858	20742.47
224.931	20737.89
225.004	20752.06
225.077	20757.65
225.15	20739.14
225.223	20755.48
225.296	20790.85
225.369	20779.14
225.442	20788.59
225.514	20800.97
225.587	20819.91
225.66	20838.61
225.733	20840.83
225.806	20852.54
225.879	20860.98
225.952	20860.11
226.025	20883.48
226.097	20923.15
226.17	20935.78
226.243	20929.32
226.316	20933.99
226.389	20949.56
226.461	20978.82
226.534	20989.76
226.607	20994.43
226.68	21028.36
226.753	21041.09
226.825	21020.7
226.898	21039.54
226.971	21043.98
227.044	21063.45
227.117	21073.28
227.189	21083.55
227.262	21108.66
227.335	21120.85
227.407	21125.14
227.48	21138.35
227.553	21139.07
227.626	21130.49
227.698	21132.32
227.771	21150.59
227.844	21146.63
227.916	21143.5
227.989	21124.51
228.062	21127.21
228.134	21167.46
228.207	21162.44
228.28	21164.95
228.352	21171.74
228.425	21174.25
228.498	21185.67
228.57	21175.75
228.643	21188.81
228.716	21179.31
228.788	21173.09
228.861	21169.77
228.934	21187.55
229.006	21193.77
229.079	21199.46
229.151	21182.16
229.224	21162.68
229.296	21162.35
229.369	21186.3
229.442	21194.74
229.514	21181.53
229.587	21185.29
229.659	21150.54
229.732	21152.27
229.804	21157.14
229.877	21180.18
229.949	21193.39
230.022	21213.82
230.094	21214.35
230.167	21208.43
230.239	21189.77
230.312	21184.13
230.384	21188.91
230.457	21182.11
230.529	21177.97
230.602	21167.12
230.674	21170.11
230.747	21183.12
230.819	21197.2
230.892	21157.05
230.964	21157.87
231.037	21161.1
231.109	21148.32
231.181	21155.6
231.254	21137.53
231.326	21125.53
231.399	21101.28
231.471	21080.9
231.544	21043.25
231.616	21038.58
231.688	21040.02
231.761	21031.35
231.833	21019.73
231.905	20993.9
231.978	20982.67
232.05	20966.09
232.122	20956.64
232.195	20945.7
232.267	20943.68
232.339	20913.03
232.412	20924.93
232.484	20904.74
232.556	20886.28
232.629	20897.89
232.701	20890.81
232.773	20882.62
232.846	20857.56
232.918	20859.15
232.99	20845.6
233.062	20840.01
233.135	20829.65
233.207	20798.13
233.279	20798.47
233.351	20783.87
233.424	20755.53
233.496	20726.61
233.568	20734.71
233.64	20701.02
233.713	20681.98
233.785	20654.61
233.857	20645.74
233.929	20603.81
234.001	20605.45
234.074	20602.51
234.146	20562.9
234.218	20533.45
234.29	20523.76
234.362	20504.78
234.434	20456.73
234.507	20418.66
234.579	20382.08
234.651	20345.84
234.723	20319.91
234.795	20294.13
234.867	20262.7
234.939	20266.27
235.012	20247.91
235.084	20222.27
235.156	20220.05
235.228	20189.45
235.3	20170.51
235.372	20145.93
235.444	20137.45
235.516	20088.34
235.588	20070.22
235.66	20052.01
235.732	20017.99
235.804	20041.02
235.876	20032.4
235.948	20025.6
236.02	20005.65
236.092	19981.02
236.164	19962.91
236.236	19939.97
236.308	19908.98
236.38	19893.66
236.452	19851.92
236.524	19837.8
236.596	19828.26
236.668	19807.92
236.74	19788.45
236.812	19767.59
236.884	19749.13
236.956	19726.24
237.028	19698.68
237.1	19658.97
237.172	19657.09
237.244	19657.33
237.316	19592.85
237.388	19555.36
237.46	19529.04
237.532	19518.59
237.604	19478.54
237.675	19477.48
237.747	19448.66
237.819	19419.46
237.891	19389.63
237.963	19360.24
238.035	19313.3
238.107	19239.13
238.178	19215.81
238.25	19180.39
238.322	19177.74
238.394	19131.04
238.466	19093.21
238.538	19062.28
238.609	19041.8
238.681	18978.76
238.753	18934.57
238.825	18900.07
238.897	18864.55
238.968	18843.78
239.04	18800.51
239.112	18801.57
239.184	18751.5
239.255	18724.13
239.327	18704.61
239.399	18675.22
239.471	18643.17
239.542	18617.58
239.614	18612.33
239.686	18560.38
239.758	18536.33
239.829	18486.75
239.901	18473.59
239.973	18453.45
240.044	18427.18
240.116	18390.56
240.188	18356.87
240.259	18319.91
240.331	18289.02
240.403	18274.23
240.474	18223.67
240.546	18186.28
240.618	18137.56
240.689	18096.07
240.761	18061.9
240.833	18040.31
240.904	18006.77
240.976	17975.78
241.048	17955.68
241.119	17925.08
241.191	17898.53
241.262	17891.78
241.334	17848.8
241.405	17807.88
241.477	17765.38
241.549	17731.35
241.62	17711.11
241.692	17684.13
241.763	17664.75
241.835	17627.4
241.906	17584.42
241.978	17537.33
242.049	17525.38
242.121	17509.33
242.192	17500.9
242.264	17456.56
242.335	17413.81
242.407	17382.54
242.478	17346.63
242.55	17314.54
242.621	17277.72
242.693	17237.86
242.764	17186.15
242.836	17151.06
242.907	17123.88
242.979	17093.47
243.05	17067.88
243.122	17024.22
243.193	16990.58
243.264	16939.44
243.336	16906.43
243.407	16890.77
243.479	16880.45
243.55	16849.32
243.622	16808.4
243.693	16766.04
243.764	16748.74
243.836	16693.31
243.907	16661.98
243.978	16622.94
244.05	16591.66
244.121	16538.07
244.192	16516.67
244.264	16474.11
244.335	16441.68
244.407	16389.96
244.478	16361.28
244.549	16322.29
244.62	16284.41
244.692	16250.43
244.763	16224.35
244.834	16179.77
244.906	16127.33
244.977	16090.7
245.048	16065.21
245.119	16021.88
245.191	15970.69
245.262	15918.39
245.333	15911.74
245.405	15881.95
245.476	15868.12
245.547	15837.51
245.618	15814.76
245.689	15781.22
245.761	15746.37
245.832	15717.06
245.903	15695.47
245.974	15669.73
246.045	15633.58
246.117	15617
246.188	15576.08
246.259	15536.89
246.33	15505.7
246.401	15478.8
246.473	15435.62
246.544	15402.74
246.615	15380.19
246.686	15355.22
246.757	15340.08
246.828	15288.84
246.899	15271.92
246.97	15224.25
247.042	15192.82
247.113	15168.05
247.184	15159.08
247.255	15126.06
247.326	15091.36
247.397	15062.1
247.468	15025.37
247.539	14998.66
247.61	14950.12
247.681	14926.21
247.752	14909
247.823	14872.56
247.894	14848.41
247.965	14817.99
248.037	14786.47
248.108	14746.85
248.179	14714.02
248.25	14677.19
248.321	14660.22
248.392	14612.26
248.463	14605.99
248.534	14562.99
248.605	14547.18
248.675	14509.58
248.746	14490.93
248.817	14473.19
248.888	14446.34
248.959	14407.44
249.03	14383.86
249.101	14363.67
249.172	14339.08
249.243	14283.36
249.314	14266.72
249.385	14234.48
249.456	14209.75
249.527	14170.17
249.598	14147.51
249.669	14120.32
249.739	14096.99
249.81	14074.58
249.881	14040.88
249.952	14004.44
250.023	13979.66
250.094	13928.85
250.165	13891.25
250.235	13859.77
250.306	13835.86
250.377	13803.61
250.448	13774.25
250.519	13725.37
250.59	13710.91
250.66	13678.42
250.731	13673.74
250.802	13650.17
250.873	13634.36
250.944	13608.04
251.014	13580.94
251.085	13585.14
251.156	13571.45
251.227	13561.66
251.297	13553.66
251.368	13535.82
251.439	13522.18
251.51	13508.44
251.58	13479.81
251.651	13453.87
251.722	13447.41
251.792	13400.55
251.863	13371.53
251.934	13369.22
252.005	13379.73
252.075	13353.94
252.146	13343.29
252.217	13338.42
252.287	13325.54
252.358	13295.99
252.429	13295.56
252.499	13263.7
252.57	13238
252.641	13223.68
252.711	13210.81
252.782	13166.66
252.852	13170.37
252.923	13146.65
252.994	13132.67
253.064	13126.02
253.135	13090.73
253.205	13053.9
253.276	13056.26
253.347	13052.94
253.417	13021.99
253.488	12989.21
253.558	12960.19
253.629	12938.11
253.699	12908.46
253.77	12898
253.841	12871.54
253.911	12849.27
253.982	12833.99
254.052	12813.55
254.123	12789.73
254.193	12758.26
254.264	12778.12
254.334	12738.68
254.405	12704.27
254.475	12668.02
254.546	12645.7
254.616	12647.48
254.687	12631.19
254.757	12605.78
254.827	12576.72
254.898	12561.39
254.968	12540.22
255.039	12517.81
255.109	12508.55
255.18	12482.28
255.25	12429.21
255.321	12416
255.391	12380.38
255.461	12379.32
255.532	12329.09
255.602	12312.7
255.673	12271.15
255.743	12233.41
255.813	12180.48
255.884	12171.85
255.954	12160
256.024	12154.02
256.095	12128.42
256.165	12099.41
256.235	12085.76
256.306	12061.76
256.376	12054.63
256.446	12044.79
256.517	12036.36
256.587	12020.02
256.657	12007.68
256.728	11995.77
256.798	11982.13
256.868	11959.33
256.938	11924
257.009	11920
257.079	11903.03
257.149	11910.55
257.219	11866.3
257.29	11863.94
257.36	11823.99
257.43	11814.83
257.5	11771.64
257.571	11749.61
257.641	11736.7
257.711	11708.4
257.781	11700.07
257.852	11686.52
257.922	11647.05
257.992	11618.95
258.062	11593.98
258.132	11580.44
258.202	11562.8
258.273	11543.85
258.343	11544.14
258.413	11529.15
258.483	11507.27
258.553	11481.05
258.623	11458.54
258.693	11450.3
258.764	11447.27
258.834	11451.6
258.904	11428.32
258.974	11410.64
259.044	11389.82
259.114	11381.77
259.184	11369.53
259.254	11345.96
259.324	11298.97
259.394	11290.1
259.464	11295.65
259.535	11274.58
259.605	11248.94
259.675	11224.37
259.745	11211.5
259.815	11178.25
259.885	11154.1
259.955	11169.62
260.025	11138.64
260.095	11118.73
260.165	11103.02
260.235	11104.47
260.305	11073.87
260.375	11047.94
260.445	11055.89
260.515	11058.06
260.585	11050.78
260.655	11028.76
260.725	11017.58
260.795	11011.31
260.865	11017.44
260.934	10985.1
261.004	10976.52
261.074	10963.61
261.144	10963.75
261.214	10956.23
261.284	10947.94
261.354	10938.98
261.424	10908.91
261.494	10916.38
261.564	10905.97
261.634	10901.82
261.703	10863.71
261.773	10856.29
261.843	10848
261.913	10818.07
