Data from 20250703_urea_0.1M_MAYP1162681_05-01-05-563.txt Node
Date: Fri Jul 04 05:01:05 BST 2025
User: adleo
Spectrometer: MAYP116268
Trigger mode: 0
Integration Time (sec): 1.000000E0
Scans to average: 1
Electric dark correction enabled: true
Nonlinearity correction enabled: true
Boxcar width: 10
XAxis mode: Wavelengths
Number of Pixels in Spectrum: 2068
>>>>>Begin Spectral Data<<<<<
179.565	1266.26
179.642	1322.68
179.718	1370.11
179.795	1410.19
179.871	1444
179.948	1462.54
180.024	1483.83
180.101	1509.35
180.177	1525.31
180.254	1549.3
180.33	1572.81
180.407	1630.5
180.483	1729.66
180.56	1826.06
180.636	1916.8
180.712	1900.2
180.789	1910.47
180.865	1924.53
180.942	1931.76
181.018	1942.93
181.095	1957.96
181.171	1962.34
181.248	1965.52
181.324	1981.89
181.4	1989.69
181.477	2003
181.553	2015.12
181.63	2038.52
181.706	2053.46
181.782	2061.49
181.859	2060.54
181.935	2065.35
182.011	2062.4
182.088	2081.85
182.164	2099.74
182.24	2111.4
182.317	2124.71
182.393	2121.43
182.469	2138.5
182.546	2151.92
182.622	2159.72
182.698	2154.11
182.775	2167.95
182.851	2183.36
182.927	2173.42
183.003	2170.04
183.08	2165.14
183.156	2175.94
183.232	2169.95
183.308	2157.82
183.385	2165.05
183.461	2186.03
183.537	2188.22
183.613	2202.87
183.69	2193.5
183.766	2183.55
183.842	2191.02
183.918	2194.63
183.995	2210.29
184.071	2212.14
184.147	2206.2
184.223	2193.88
184.299	2208.25
184.375	2194.55
184.452	2200.83
184.528	2254.8
184.604	2266.22
184.68	2276.02
184.756	2284.97
184.832	2290.96
184.908	2296.29
184.985	2296.53
185.061	2278.16
185.137	2286.35
185.213	2272.93
185.289	2272.07
185.365	2263.27
185.441	2262.8
185.517	2277.36
185.593	2272.27
185.669	2269.22
185.745	2280.22
185.822	2294.58
185.898	2286.16
185.974	2297.72
186.05	2287.62
186.126	2250.07
186.202	2240.56
186.278	2236.66
186.354	2226.38
186.43	2232.04
186.506	2233.04
186.582	2233.23
186.658	2238.75
186.734	2219.34
186.81	2221.62
186.886	2223.9
186.962	2239.08
187.038	2233.47
187.114	2225.75
187.19	2232.56
187.266	2221.14
187.341	2222.38
187.417	2218.53
187.493	2216.05
187.569	2219.05
187.645	2217.34
187.721	2205.11
187.797	2214.95
187.873	2221.38
187.949	2217.81
188.025	2212.1
188.101	2213.72
188.176	2218.47
188.252	2215.43
188.328	2222.47
188.404	2223.18
188.48	2221.14
188.556	2213.19
188.632	2215
188.707	2216.14
188.783	2212.33
188.859	2209.43
188.935	2198.15
189.011	2205.43
189.086	2198.49
189.162	2186.69
189.238	2180.41
189.314	2178.46
189.39	2172.46
189.465	2163.04
189.541	2177.13
189.617	2161.62
189.693	2152.96
189.768	2158.2
189.844	2184.23
189.92	2177.77
189.996	2188.47
190.071	2199.42
190.147	2200.65
190.223	2208.22
190.298	2197.7
190.374	2184.29
190.45	2196.94
190.526	2206.22
190.601	2198.79
190.677	2203.46
190.753	2233.16
190.828	2237.01
190.904	2253.67
190.98	2269.95
191.055	2281.42
191.131	2270.19
191.207	2293.31
191.282	2306.25
191.358	2296.92
191.433	2279.78
191.509	2289.34
191.585	2286.53
191.66	2289.2
191.736	2294.29
191.811	2285.54
191.887	2304.96
191.963	2331.37
192.038	2338.32
192.114	2337.98
192.189	2343.03
192.265	2340.17
192.34	2316.75
192.416	2316.65
192.491	2311.61
192.567	2314.61
192.642	2318.13
192.718	2318.08
192.793	2305.04
192.869	2301.33
192.944	2302.8
193.02	2311.42
193.095	2322.08
193.171	2326.6
193.246	2324.84
193.322	2321.65
193.397	2324.22
193.473	2309.32
193.548	2289.71
193.624	2292.71
193.699	2294.37
193.775	2310.08
193.85	2309.32
193.925	2321.51
194.001	2322.27
194.076	2315.8
194.152	2306.08
194.227	2297.28
194.302	2289.57
194.378	2293.52
194.453	2291.38
194.529	2302.99
194.604	2286.62
194.679	2275.77
194.755	2256.74
194.83	2268.12
194.905	2267.46
194.981	2275.12
195.056	2266.37
195.131	2275.41
195.207	2274.69
195.282	2263.13
195.357	2243.52
195.433	2257.79
195.508	2242.09
195.583	2246.61
195.659	2261.93
195.734	2267.27
195.809	2267.69
195.884	2280.44
195.96	2279.44
196.035	2294.77
196.11	2291.25
196.185	2303.71
196.261	2309.99
196.336	2339.83
196.411	2324.84
196.486	2329.21
196.561	2323.74
196.637	2335.49
196.712	2349.3
196.787	2352.73
196.862	2370.24
196.937	2384
197.013	2392.66
197.088	2404.04
197.163	2429.75
197.238	2447.62
197.313	2446.1
197.388	2457.67
197.464	2484.77
197.539	2497.29
197.614	2490.43
197.689	2502.57
197.764	2521.53
197.839	2540.77
197.914	2536.15
197.989	2562.48
198.065	2577.43
198.14	2628
198.215	2653.76
198.29	2665.15
198.365	2678.35
198.44	2688.54
198.515	2716.75
198.59	2731.52
198.665	2761.06
198.74	2766.01
198.815	2766.97
198.89	2792.84
198.965	2827.39
199.04	2825.68
199.115	2840.83
199.19	2887.58
199.265	2893.34
199.34	2903.16
199.415	2937.92
199.49	2962.46
199.565	2974.05
199.64	2998.41
199.715	2993.25
199.79	3000.69
199.865	3007.99
199.94	3007.56
200.015	3040.13
200.09	3044.75
200.165	3052.28
200.24	3059.63
200.315	3105.54
200.39	3119.7
200.464	3128.34
200.539	3130.05
200.614	3147.79
200.689	3175.79
200.764	3181.37
200.839	3199.44
200.914	3209.02
200.989	3197.14
201.063	3211.88
201.138	3188.91
201.213	3190.77
201.288	3173.41
201.363	3179.95
201.438	3180.99
201.512	3195.06
201.587	3178.98
201.662	3180.27
201.737	3196.01
201.812	3203.83
201.886	3167.51
201.961	3179.15
202.036	3163.27
202.111	3160.6
202.186	3132.14
202.26	3113.21
202.335	3090.17
202.41	3085.92
202.485	3066.76
202.559	3048.35
202.634	3022.08
202.709	3036.9
202.784	3022.78
202.858	3026.88
202.933	3010.1
203.008	3004.76
203.082	2990.22
203.157	2992.41
203.232	2955.01
203.306	2936.74
203.381	2909.22
203.456	2893.54
203.53	2874.79
203.605	2862.5
203.68	2846.47
203.754	2845.24
203.829	2838.23
203.904	2829.31
203.978	2826.41
204.053	2845.48
204.127	2845.86
204.202	2857.2
204.277	2853.15
204.351	2857.39
204.426	2868.51
204.5	2880.38
204.575	2866.56
204.65	2895.88
204.724	2910.24
204.799	2942.5
204.873	2960.86
204.948	2983.89
205.022	2997.72
205.097	3019.67
205.171	3063.3
205.246	3103.09
205.32	3135.55
205.395	3172
205.469	3199.37
205.544	3249.4
205.618	3270.83
205.693	3328.25
205.767	3358.16
205.842	3427.58
205.916	3470.92
205.991	3508.74
206.065	3558.63
206.14	3630.84
206.214	3684.55
206.289	3730.09
206.363	3802.7
206.438	3867.28
206.512	3939.87
206.586	4025.37
206.661	4101.65
206.735	4147.62
206.81	4221.26
206.884	4314.45
206.958	4374.27
207.033	4466.56
207.107	4549.01
207.181	4660.55
207.256	4732.5
207.33	4836.31
207.405	4932.34
207.479	5037.74
207.553	5130.98
207.628	5206.39
207.702	5308.15
207.776	5387.17
207.851	5487.72
207.925	5597.63
207.999	5681.43
208.073	5773.69
208.148	5876.01
208.222	5958.29
208.296	6085.66
208.371	6198.57
208.445	6308.06
208.519	6440.52
208.593	6555.3
208.668	6655.88
208.742	6757.73
208.816	6869.09
208.89	6994.22
208.965	7100.35
209.039	7211.07
209.113	7334.43
209.187	7467.23
209.261	7570.72
209.336	7700.22
209.41	7826.73
209.484	7934.81
209.558	8069.17
209.632	8189.7
209.707	8307.42
209.781	8435.96
209.855	8565.01
209.929	8689.1
210.003	8799.84
210.077	8898.79
210.151	9057.29
210.226	9193.21
210.3	9338.74
210.374	9467.82
210.448	9570.05
210.522	9676.97
210.596	9794.14
210.67	9907.22
210.744	10055.48
210.818	10191.69
210.892	10312.65
210.966	10418.3
211.041	10531.08
211.115	10630.42
211.189	10762.29
211.263	10870.27
211.337	10975.5
211.411	11085.27
211.485	11179.34
211.559	11294.46
211.633	11402.6
211.707	11471.38
211.781	11579.39
211.855	11635.54
211.929	11723.64
212.003	11800.75
212.077	11913.49
212.151	12021.51
212.225	12123.16
212.299	12203.52
212.373	12281.94
212.447	12376.32
212.52	12490.04
212.594	12591.7
212.668	12693.31
212.742	12760.99
212.816	12845.2
212.89	12930.09
212.964	13022.74
213.038	13112.55
213.112	13212.39
213.186	13317.57
213.26	13379.42
213.333	13415.86
213.407	13501.67
213.481	13586.32
213.555	13680.27
213.629	13740.77
213.703	13801.85
213.777	13883.08
213.85	13938.18
213.924	14053.68
213.998	14133.89
214.072	14203.02
214.146	14259.61
214.219	14337.12
214.293	14411.79
214.367	14496.83
214.441	14582.87
214.515	14634.45
214.588	14690.75
214.662	14727.58
214.736	14773.57
214.81	14840.62
214.883	14918.95
214.957	14972.03
215.031	15021.15
215.105	15070.94
215.178	15125.99
215.252	15187.69
215.326	15234.64
215.4	15285.11
215.473	15296.05
215.547	15338.61
215.621	15384.88
215.694	15462.44
215.768	15495.31
215.842	15536.14
215.915	15571.37
215.989	15606.08
216.063	15653.36
216.136	15705.22
216.21	15755.35
216.284	15824.08
216.357	15889.11
216.431	15939.52
216.504	16000.16
216.578	16086.38
216.652	16148.8
216.725	16206.35
216.799	16269.2
216.873	16312.29
216.946	16381.26
217.02	16439.05
217.093	16483
217.167	16510.14
217.24	16537.27
217.314	16589.18
217.387	16641.33
217.461	16693.67
217.535	16758.49
217.608	16798.26
217.682	16845.1
217.755	16905.15
217.829	16944.77
217.902	16991.52
217.976	17041.11
218.049	17089.4
218.123	17120.87
218.196	17171.18
218.27	17209.5
218.343	17240.58
218.417	17294.27
218.49	17333.11
218.563	17390.27
218.637	17444.44
218.71	17515.81
218.784	17557.45
218.857	17615.86
218.931	17663.91
219.004	17709.88
219.077	17765.21
219.151	17831.18
219.224	17875.76
219.298	17915.85
219.371	17968.38
219.444	18000
219.518	18044.04
219.591	18083.56
219.665	18154.59
219.738	18199.51
219.811	18238.73
219.885	18297.62
219.958	18346.63
220.031	18397.38
220.105	18441.42
220.178	18490.91
220.251	18522.96
220.325	18581.17
220.398	18617.12
220.471	18669.75
220.544	18726.9
220.618	18754.46
220.691	18797.21
220.764	18832.53
220.838	18889.44
220.911	18921.68
220.984	18991.85
221.057	19043.46
221.131	19097.62
221.204	19106.01
221.277	19169.04
221.35	19243.3
221.424	19270.96
221.497	19314.29
221.57	19355.44
221.643	19402.23
221.716	19441.03
221.79	19482.47
221.863	19520.11
221.936	19559.48
222.009	19594.08
222.082	19632.1
222.155	19660.58
222.229	19699.42
222.302	19751.51
222.375	19779.32
222.448	19820.72
222.521	19845.05
222.594	19869.39
222.667	19881.2
222.74	19932.18
222.814	19959.12
222.887	19977.1
222.96	20021.24
223.033	20065.96
223.106	20088.66
223.179	20110.2
223.252	20137.53
223.325	20172.42
223.398	20196.37
223.471	20230.05
223.544	20251.64
223.617	20277.91
223.69	20312.61
223.763	20331.79
223.837	20355.79
223.91	20386.77
223.983	20384.12
224.056	20399.35
224.129	20426.97
224.202	20471.54
224.275	20478.48
224.348	20479.98
224.42	20489.86
224.493	20496.7
224.566	20505.47
224.639	20530.39
224.712	20552.94
224.785	20569.14
224.858	20576.94
224.931	20583.5
225.004	20592.46
225.077	20609.52
225.15	20598.73
225.223	20603.16
225.296	20638.83
225.369	20628.66
225.442	20630.39
225.514	20660.9
225.587	20669.67
225.66	20681.62
225.733	20685.77
225.806	20706.34
225.879	20722.44
225.952	20731.98
226.025	20750.78
226.097	20776.08
226.17	20784.47
226.243	20770.97
226.316	20778.93
226.389	20789.14
226.461	20815.31
226.534	20824.95
226.607	20842.78
226.68	20877.48
226.753	20899.56
226.825	20889.34
226.898	20919.41
226.971	20927.46
227.044	20936.57
227.117	20946.84
227.189	20965.44
227.262	20989.73
227.335	20992.19
227.407	20990.41
227.48	20997.73
227.553	21005.88
227.626	21002.74
227.698	21004.38
227.771	21014.31
227.844	21004.57
227.916	21014.07
227.989	21004.53
228.062	21000.14
228.134	21019.28
228.207	21012.38
228.28	20997.88
228.352	20993.88
228.425	20991.51
228.498	21004.24
228.57	20997.01
228.643	21011.37
228.716	21009.01
228.788	20997.54
228.861	20988.62
228.934	21007.03
229.006	21004.14
229.079	20996.96
229.151	20989.63
229.224	20972.43
229.296	20980.38
229.369	21018.26
229.442	21035.52
229.514	21017.01
229.587	21031.76
229.659	21014.36
229.732	21021.25
229.804	21033.54
229.877	21052.24
229.949	21067.09
230.022	21088.2
230.094	21087.48
230.167	21093.93
230.239	21084.05
230.312	21074.46
230.384	21099.86
230.457	21094.13
230.529	21104.44
230.602	21103.28
230.674	21096.3
230.747	21115.33
230.819	21118.47
230.892	21080.82
230.964	21076.73
231.037	21086.8
231.109	21082.65
231.181	21086.8
231.254	21054.51
231.326	21042.56
231.399	21032
231.471	21018.55
231.544	20982.21
231.616	20981.2
231.688	20957.78
231.761	20938.6
231.833	20933.34
231.905	20893.48
231.978	20885.92
232.05	20856.42
232.122	20844.28
232.195	20834.25
232.267	20833.63
232.339	20810.88
232.412	20820.61
232.484	20790.06
232.556	20771.41
232.629	20767.99
232.701	20750.06
232.773	20755.79
232.846	20745.38
232.918	20739.16
232.99	20725.48
233.062	20723.79
233.135	20722.49
233.207	20705.33
233.279	20698.25
233.351	20688.22
233.424	20669.81
233.496	20638.87
233.568	20656.95
233.64	20637.77
233.713	20619.84
233.785	20601.14
233.857	20600.46
233.929	20560.27
234.001	20567.69
234.074	20565.96
234.146	20530.78
234.218	20521.19
234.29	20496.61
234.362	20472.75
234.434	20432.12
234.507	20394.49
234.579	20351.45
234.651	20321.23
234.723	20310.49
234.795	20299.21
234.867	20280.13
234.939	20282.49
235.012	20271.64
235.084	20249.14
235.156	20229.72
235.228	20208.17
235.3	20175.69
235.372	20148.03
235.444	20135.65
235.516	20092.42
235.588	20075.98
235.66	20061.48
235.732	20027.89
235.804	20063.98
235.876	20035.75
235.948	20025.72
236.02	20002.93
236.092	19984.42
236.164	19955.89
236.236	19924.47
236.308	19892.67
236.38	19868.72
236.452	19837.83
236.524	19808.48
236.596	19795.27
236.668	19775.13
236.74	19741.73
236.812	19716.72
236.884	19699.9
236.956	19678.41
237.028	19638.03
237.1	19595.91
237.172	19588.92
237.244	19576.59
237.316	19508.83
237.388	19483
237.46	19448.3
237.532	19433.94
237.604	19394.52
237.675	19384.84
237.747	19362.76
237.819	19325.85
237.891	19297.66
237.963	19253.37
238.035	19223.83
238.107	19160.46
238.178	19145.57
238.25	19115.98
238.322	19118.01
238.394	19067.41
238.466	19036.57
238.538	19010.02
238.609	18989.05
238.681	18927.76
238.753	18880.1
238.825	18844.1
238.897	18820.15
238.968	18810.99
239.04	18774.56
239.112	18772.54
239.184	18727.43
239.255	18696.11
239.327	18662.13
239.399	18623.58
239.471	18611.49
239.542	18590.91
239.614	18572.93
239.686	18513.95
239.758	18483.73
239.829	18433.13
239.901	18416.85
239.973	18386.44
240.044	18358.44
240.116	18321.28
240.188	18292.42
240.259	18260.18
240.331	18220.95
240.403	18200.95
240.474	18145.68
240.546	18105.34
240.618	18054.07
240.689	18019.71
240.761	17983.66
240.833	17980.82
240.904	17948.96
240.976	17906.6
241.048	17870.94
241.119	17851.38
241.191	17833.64
241.262	17831.52
241.334	17795.38
241.405	17761.98
241.477	17714.7
241.549	17680.1
241.62	17649.5
241.692	17628.05
241.763	17610.56
241.835	17576.83
241.906	17532.44
241.978	17485.4
242.049	17466.85
242.121	17451.04
242.192	17432.2
242.264	17394.9
242.335	17336.44
242.407	17312.82
242.478	17273.55
242.55	17235.76
242.621	17182.12
242.693	17138.99
242.764	17099.62
242.836	17062.07
242.907	17032.44
242.979	17012.63
243.05	16983.81
243.122	16956.58
243.193	16920.14
243.264	16860.86
243.336	16829.68
243.407	16810.98
243.479	16797.29
243.55	16765.29
243.622	16733.96
243.693	16697.38
243.764	16677.53
243.836	16632.41
243.907	16594.97
243.978	16565.37
244.05	16538.58
244.121	16487.54
244.192	16466.38
244.264	16416.11
244.335	16386.52
244.407	16332.87
244.478	16304.29
244.549	16274.07
244.62	16229.63
244.692	16203.7
244.763	16192.42
244.834	16157.05
244.906	16111.5
244.977	16089.71
245.048	16072.27
245.119	16032.6
245.191	15989.17
245.262	15939.19
245.333	15932.06
245.405	15904.15
245.476	15874.31
245.547	15848.24
245.618	15828.62
245.689	15800.13
245.761	15769.53
245.832	15732.12
245.903	15712.65
245.974	15680.16
246.045	15646.52
246.117	15636.21
246.188	15580.1
246.259	15525.2
246.33	15491.75
246.401	15455.26
246.473	15404.98
246.544	15366.52
246.615	15335.33
246.686	15302.46
246.757	15279.61
246.828	15232.37
246.899	15214.44
246.97	15164.7
247.042	15123.87
247.113	15102.8
247.184	15085.89
247.255	15044.53
247.326	15021.58
247.397	14986.39
247.468	14955.83
247.539	14923.44
247.61	14872.54
247.681	14859.62
247.752	14850.99
247.823	14816.43
247.894	14794.98
247.965	14755.55
248.037	14713.22
248.108	14670.22
248.179	14645.06
248.25	14612.52
248.321	14593.87
248.392	14545.71
248.463	14551.02
248.534	14517.42
248.605	14499.1
248.675	14469.65
248.746	14448.68
248.817	14426.6
248.888	14408.47
248.959	14362.24
249.03	14344.51
249.101	14322.76
249.172	14287
249.243	14229.68
249.314	14214.88
249.385	14187.35
249.456	14170.39
249.527	14144.11
249.598	14132.4
249.669	14098.66
249.739	14081.93
249.81	14057.78
249.881	14019.69
249.952	13983.54
250.023	13966.04
250.094	13917.26
250.165	13874.93
250.235	13855.7
250.306	13827.35
250.377	13785.36
250.448	13764.35
250.519	13716.09
250.59	13694.59
250.66	13665.28
250.731	13667.31
250.802	13643.78
250.873	13629.8
250.944	13606.52
251.014	13581.74
251.085	13579.14
251.156	13564.58
251.227	13544.19
251.297	13535.07
251.368	13524.28
251.439	13512.61
251.51	13493.52
251.58	13469.66
251.651	13444.35
251.722	13429.5
251.792	13386.07
251.863	13363.12
251.934	13359.89
252.005	13363.36
252.075	13343.31
252.146	13332.37
252.217	13312.6
252.287	13293.13
252.358	13262.08
252.429	13253.4
252.499	13215.75
252.57	13189.48
252.641	13172.47
252.711	13146.63
252.782	13103.24
252.852	13096.44
252.923	13070.75
252.994	13047.71
253.064	13035.27
253.135	13005.09
253.205	12973.04
253.276	12973.52
253.347	12964.17
253.417	12927.19
253.488	12901.5
253.558	12875.95
253.629	12852.81
253.699	12837.19
253.77	12823.02
253.841	12795.2
253.911	12779.73
253.982	12766.81
254.052	12741.17
254.123	12724.49
254.193	12713.88
254.264	12734.27
254.334	12702.94
254.405	12669.92
254.475	12643.26
254.546	12622.34
254.616	12611.59
254.687	12598.38
254.757	12580.6
254.827	12553.02
254.898	12540.59
254.968	12522.75
255.039	12489.78
255.109	12482.65
255.18	12453.43
255.25	12409.33
255.321	12391.4
255.391	12352.3
255.461	12359.58
255.532	12322.61
255.602	12299.95
255.673	12246.83
255.743	12213.48
255.813	12171.73
255.884	12167.78
255.954	12155.68
256.024	12153.22
256.095	12135.63
256.165	12099.24
256.235	12076.44
256.306	12057.83
256.376	12047.66
256.446	12022.6
256.517	12014.98
256.587	12005.15
256.657	11986.64
256.728	11973
256.798	11960.32
256.868	11947.16
256.938	11913.32
257.009	11902.38
257.079	11883.29
257.149	11895.15
257.219	11849.36
257.29	11840.83
257.36	11799.23
257.43	11791.71
257.5	11744.19
257.571	11719.85
257.641	11711.08
257.711	11688.47
257.781	11678.93
257.852	11665.29
257.922	11633.04
257.992	11615.79
258.062	11585.76
258.132	11573.76
258.202	11550.77
258.273	11534.24
258.343	11529.66
258.413	11504.6
258.483	11480.69
258.553	11450.57
258.623	11422.81
258.693	11410.81
258.764	11407.72
258.834	11402.57
258.904	11381.21
258.974	11356.45
259.044	11334.85
259.114	11319.34
259.184	11297.26
259.254	11271.77
259.324	11226.22
259.394	11220.88
259.464	11221.89
259.535	11203.67
259.605	11180.83
259.675	11152.3
259.745	11129.02
259.815	11095.14
259.885	11069.6
259.955	11089.12
260.025	11067.19
260.095	11048.45
260.165	11040.26
260.235	11038.86
260.305	11014.76
260.375	10982.33
260.445	10991.44
260.515	10991.29
260.585	10986.52
260.655	10972.45
260.725	10965.13
260.795	10963.39
260.865	10966.76
260.934	10941.13
261.004	10936.26
261.074	10921.66
261.144	10934.14
261.214	10938.23
261.284	10921.32
261.354	10916.26
261.424	10887.3
261.494	10889.51
261.564	10878
261.634	10869.8
261.703	10835.97
261.773	10829.81
261.843	10826
261.913	10806.15
261.983	10772.08
