Data from 20250703_urea_0.1M_MAYP1162681_04-21-04-757.txt Node
Date: Fri Jul 04 04:21:04 BST 2025
User: adleo
Spectrometer: MAYP116268
Trigger mode: 0
Integration Time (sec): 1.000000E0
Scans to average: 1
Electric dark correction enabled: true
Nonlinearity correction enabled: true
Boxcar width: 10
XAxis mode: Wavelengths
Number of Pixels in Spectrum: 2068
>>>>>Begin Spectral Data<<<<<
179.565	1284.24
179.642	1341.39
179.718	1391.67
179.795	1431.98
179.871	1468.19
179.948	1488.57
180.024	1512.37
180.101	1535.91
180.177	1551.09
180.254	1575.63
180.33	1599.17
180.407	1656.01
180.483	1755.82
180.56	1851.42
180.636	1940.68
180.712	1927.17
180.789	1938.68
180.865	1949.8
180.942	1958.46
181.018	1967.35
181.095	1981
181.171	1984.33
181.248	1987.04
181.324	2000.64
181.4	2007.87
181.477	2017.1
181.553	2030.74
181.63	2050.82
181.706	2068.46
181.782	2077.73
181.859	2077.97
181.935	2081.87
182.011	2082.01
182.088	2100.95
182.164	2122.36
182.24	2138.2
182.317	2147.61
182.393	2143.86
182.469	2159.08
182.546	2176.63
182.622	2182.82
182.698	2176.49
182.775	2189.38
182.851	2205.13
182.927	2196.42
183.003	2193.28
183.08	2189.05
183.156	2195.19
183.232	2192
183.308	2181.91
183.385	2191.28
183.461	2209.03
183.537	2212.55
183.613	2224.4
183.69	2216.6
183.766	2204.08
183.842	2210.74
183.918	2217.64
183.995	2234.34
184.071	2237.48
184.147	2229.44
184.223	2218.93
184.299	2237.15
184.375	2225.78
184.452	2232.4
184.528	2287.76
184.604	2298.84
184.68	2310.5
184.756	2321.11
184.832	2324.3
184.908	2325.63
184.985	2322.54
185.061	2306.5
185.137	2317.59
185.213	2308.08
185.289	2311.22
185.365	2301.61
185.441	2300.75
185.517	2313.13
185.593	2308.66
185.669	2306.23
185.745	2317.51
185.822	2334.2
185.898	2320.31
185.974	2330.44
186.05	2322.35
186.126	2286.07
186.202	2277.65
186.278	2273.42
186.354	2265.28
186.43	2271.85
186.506	2272.51
186.582	2274.46
186.658	2279.27
186.734	2254.67
186.81	2255.05
186.886	2254.62
186.962	2270.94
187.038	2266.33
187.114	2258.61
187.19	2264.04
187.266	2255.47
187.341	2256.43
187.417	2250.38
187.493	2251.14
187.569	2255.38
187.645	2248.62
187.721	2235.63
187.797	2243.15
187.873	2247.38
187.949	2241.05
188.025	2234.63
188.101	2239.57
188.176	2244.9
188.252	2242.91
188.328	2252.13
188.404	2253.18
188.48	2247.52
188.556	2239.09
188.632	2237.33
188.707	2240.19
188.783	2236.67
188.859	2231.01
188.935	2220.97
189.011	2226.82
189.086	2222.01
189.162	2212.83
189.238	2210.21
189.314	2206.74
189.39	2201.27
189.465	2196.46
189.541	2212.21
189.617	2198.85
189.693	2192.23
189.768	2194.37
189.844	2217.13
189.92	2209.14
189.996	2218.46
190.071	2230.36
190.147	2229.93
190.223	2241.45
190.298	2231.5
190.374	2220.42
190.45	2233.93
190.526	2240.02
190.601	2233.88
190.677	2234.88
190.753	2260.11
190.828	2264.53
190.904	2279.19
190.98	2294.42
191.055	2304.37
191.131	2297.71
191.207	2317.79
191.282	2328.68
191.358	2318.36
191.433	2306.31
191.509	2322.1
191.585	2317.68
191.66	2318.06
191.736	2327.96
191.811	2317.44
191.887	2332.91
191.963	2356.04
192.038	2363.13
192.114	2364.18
192.189	2369.6
192.265	2368.13
192.34	2346.61
192.416	2344.23
192.491	2341.85
192.567	2345.56
192.642	2348.13
192.718	2344.61
192.793	2334.47
192.869	2329.48
192.944	2332.71
193.02	2336.81
193.095	2343.04
193.171	2351.42
193.246	2352.71
193.322	2350.85
193.397	2352.94
193.473	2339.99
193.548	2321.81
193.624	2323
193.699	2320.67
193.775	2339.71
193.85	2337.48
193.925	2349.85
194.001	2350.14
194.076	2341.9
194.152	2330.86
194.227	2323.86
194.302	2315.96
194.378	2320.39
194.453	2316.68
194.529	2329.91
194.604	2315.49
194.679	2304.64
194.755	2282.23
194.83	2295.99
194.905	2292.57
194.981	2300.09
195.056	2294.47
195.131	2300.37
195.207	2299.09
195.282	2289.9
195.357	2267.1
195.433	2286.28
195.508	2274.33
195.583	2281.89
195.659	2297.46
195.734	2305.93
195.809	2304.08
195.884	2313.31
195.96	2311.12
196.035	2326.35
196.11	2320.21
196.185	2334.2
196.261	2337.72
196.336	2370.18
196.411	2355.7
196.486	2357.89
196.561	2349.66
196.637	2355.94
196.712	2374.75
196.787	2377.75
196.862	2394.79
196.937	2406.3
197.013	2410.4
197.088	2420.58
197.163	2443.45
197.238	2464.13
197.313	2460.75
197.388	2473.03
197.464	2503.27
197.539	2513.46
197.614	2509.03
197.689	2524.32
197.764	2541.23
197.839	2562.23
197.914	2557.27
197.989	2578.52
198.065	2594.85
198.14	2648.32
198.215	2676.51
198.29	2689.48
198.365	2701.77
198.44	2712.77
198.515	2742.88
198.59	2762.47
198.665	2790.15
198.74	2800.88
198.815	2798.83
198.89	2826.03
198.965	2858.06
199.04	2855.44
199.115	2872.97
199.19	2914.24
199.265	2916.48
199.34	2927.25
199.415	2962.88
199.49	2986.8
199.565	2998.1
199.64	3022.7
199.715	3023.13
199.79	3033.04
199.865	3038.05
199.94	3039.77
200.015	3074.82
200.09	3080.49
200.165	3083.93
200.24	3090.51
200.315	3130.75
200.39	3144.44
200.464	3149.11
200.539	3152.93
200.614	3169.33
200.689	3200.14
200.764	3208.26
200.839	3229.47
200.914	3235.91
200.989	3224.07
201.063	3237.53
201.138	3216.7
201.213	3219.37
201.288	3199.1
201.363	3205.01
201.438	3203.87
201.512	3221.79
201.587	3203.38
201.662	3204.62
201.737	3216.54
201.812	3227.09
201.886	3194.38
201.961	3210.18
202.036	3202.98
202.111	3198.16
202.186	3164.61
202.26	3144.67
202.335	3125.01
202.41	3119.24
202.485	3104.22
202.559	3087.34
202.634	3060.97
202.709	3076.03
202.784	3055.96
202.858	3058.67
202.933	3039.7
203.008	3037.74
203.082	3020.86
203.157	3022.29
203.232	2987.31
203.306	2973.57
203.381	2941.81
203.456	2918.74
203.53	2898.03
203.605	2878.87
203.68	2863.23
203.754	2870.28
203.829	2863.99
203.904	2848.31
203.978	2845.21
204.053	2860.13
204.127	2858.46
204.202	2870.81
204.277	2869.24
204.351	2880.2
204.426	2889.36
204.5	2898.7
204.575	2882.35
204.65	2908.39
204.724	2922.37
204.799	2951.92
204.873	2970.85
204.948	2999.61
205.022	3019.34
205.097	3041.92
205.171	3091.08
205.246	3134.69
205.32	3169.79
205.395	3204.96
205.469	3238.9
205.544	3286.11
205.618	3303.96
205.693	3360.66
205.767	3396.41
205.842	3461.01
205.916	3505.41
205.991	3548.29
206.065	3609.8
206.14	3683.69
206.214	3740.55
206.289	3794.89
206.363	3869.14
206.438	3933.38
206.512	4004.27
206.586	4090.01
206.661	4162.91
206.735	4212.67
206.81	4286.12
206.884	4374.88
206.958	4437.73
207.033	4534.06
207.107	4618.9
207.181	4739.67
207.256	4818.05
207.33	4915.9
207.405	5018.54
207.479	5125.69
207.553	5221.58
207.628	5293.86
207.702	5392.8
207.776	5479.65
207.851	5576.97
207.925	5689.53
207.999	5786.3
208.073	5886.74
208.148	5986.24
208.222	6079.47
208.296	6215.42
208.371	6331.23
208.445	6443.03
208.519	6582.11
208.593	6697.73
208.668	6802.35
208.742	6909.89
208.816	7015.84
208.89	7142.26
208.965	7246.15
209.039	7360.98
209.113	7480.75
209.187	7606.16
209.261	7714.8
209.336	7846.3
209.41	7977.89
209.484	8085.84
209.558	8218.41
209.632	8329.86
209.707	8458.03
209.781	8585.01
209.855	8711.98
209.929	8843.26
210.003	8958.29
210.077	9057.07
210.151	9214.43
210.226	9358.17
210.3	9496.1
210.374	9630.29
210.448	9742.26
210.522	9864.84
210.596	9977.74
210.67	10101.38
210.744	10257.97
210.818	10396.41
210.892	10523.07
210.966	10623.86
211.041	10745.37
211.115	10852.62
211.189	10987.2
211.263	11104.58
211.337	11217.53
211.411	11326.88
211.485	11418.45
211.559	11532.71
211.633	11633.05
211.707	11701.25
211.781	11805.51
211.855	11861.32
211.929	11955.64
212.003	12029.87
212.077	12128.25
212.151	12237.23
212.225	12342.26
212.299	12429.47
212.373	12514.74
212.447	12604.06
212.52	12722.69
212.594	12821.95
212.668	12912.86
212.742	12987.58
212.816	13070.78
212.89	13150.37
212.964	13243.6
213.038	13332.64
213.112	13438.45
213.186	13549.42
213.26	13619.56
213.333	13660.63
213.407	13752.22
213.481	13822.99
213.555	13928.41
213.629	14004.96
213.703	14072.6
213.777	14155.27
213.85	14219.77
213.924	14331.75
213.998	14411.38
214.072	14487.21
214.146	14549.2
214.219	14633.27
214.293	14714.93
214.367	14792.73
214.441	14882.34
214.515	14946.83
214.588	14995.09
214.662	15037.7
214.736	15093.56
214.81	15154.16
214.883	15234.9
214.957	15294.19
215.031	15357.87
215.105	15395.03
215.178	15448.44
215.252	15504.55
215.326	15537.85
215.4	15573.67
215.473	15589.48
215.547	15633.72
215.621	15677.39
215.694	15743.23
215.768	15775.67
215.842	15811.48
215.915	15856.5
215.989	15885.85
216.063	15929.38
216.136	15997.67
216.21	16044.43
216.284	16106.12
216.357	16172.49
216.431	16227.68
216.504	16295.63
216.578	16384.27
216.652	16449.82
216.725	16505.97
216.799	16580.24
216.873	16644.19
216.946	16711.09
217.02	16762.08
217.093	16802.23
217.167	16834.28
217.24	16868.35
217.314	16911.54
217.387	16954.43
217.461	16995.06
217.535	17057.18
217.608	17091.11
217.682	17136.22
217.755	17195.64
217.829	17235.55
217.902	17295.64
217.976	17340.7
218.049	17375.11
218.123	17404.13
218.196	17461.33
218.27	17501.38
218.343	17526.29
218.417	17566.82
218.49	17612.03
218.563	17668.56
218.637	17738.44
218.71	17804.02
218.784	17852.31
218.857	17911.97
218.931	17966.58
219.004	18021.85
219.077	18085.41
219.151	18137.75
219.224	18183.39
219.298	18234.32
219.371	18297.93
219.444	18318.08
219.518	18365.06
219.591	18412.05
219.665	18485.3
219.738	18533.34
219.811	18567.32
219.885	18624.38
219.958	18686.69
220.031	18728.85
220.105	18780.9
220.178	18813.23
220.251	18857.61
220.325	18910.09
220.398	18956.07
220.471	19009.99
220.544	19060.54
220.618	19082.42
220.691	19136.92
220.764	19179.14
220.838	19222.17
220.911	19247.76
220.984	19313.49
221.057	19351.42
221.131	19399.46
221.204	19403.89
221.277	19468.08
221.35	19541.38
221.424	19578.15
221.497	19617.57
221.57	19651.16
221.643	19696.7
221.716	19745.08
221.79	19765.42
221.863	19802.91
221.936	19833.32
222.009	19872.35
222.082	19909.7
222.155	19942.62
222.229	19987.82
222.302	20028.35
222.375	20058.95
222.448	20096.83
222.521	20130.8
222.594	20155.81
222.667	20174.85
222.74	20213.55
222.814	20229.74
222.887	20249.64
222.96	20283.57
223.033	20319.72
223.106	20360.58
223.179	20386.22
223.252	20407.09
223.325	20445.84
223.398	20475.47
223.471	20511.52
223.544	20535.09
223.617	20558.08
223.69	20591.04
223.763	20598.9
223.837	20624.44
223.91	20653.55
223.983	20657.89
224.056	20655.19
224.129	20681.74
224.202	20715.14
224.275	20736.78
224.348	20740.83
224.42	20750.61
224.493	20755.33
224.566	20751.04
224.639	20768.88
224.712	20785.31
224.785	20796.11
224.858	20808.97
224.931	20810.18
225.004	20814.9
225.077	20824.69
225.15	20808.44
225.223	20818.32
225.296	20859.24
225.369	20852.3
225.442	20851.1
225.514	20870.67
225.587	20897.75
225.66	20915.92
225.733	20930.04
225.806	20942.91
225.879	20956.98
225.952	20959.73
226.025	20982.62
226.097	21017.71
226.17	21025.9
226.243	21007.59
226.316	21018.05
226.389	21026.1
226.461	21042.92
226.534	21056.56
226.607	21063.79
226.68	21097.72
226.753	21104.7
226.825	21084.99
226.898	21108.32
226.971	21111.79
227.044	21119.84
227.117	21126.2
227.189	21135.26
227.262	21146.63
227.335	21161.96
227.407	21160.27
227.48	21169.48
227.553	21177.87
227.626	21171.74
227.698	21181.72
227.771	21195.94
227.844	21192.32
227.916	21197.63
227.989	21188.23
228.062	21181.82
228.134	21210.11
228.207	21205.48
228.28	21198.01
228.352	21201.87
228.425	21208.04
228.498	21221.39
228.57	21216.95
228.643	21237.1
228.716	21238.26
228.788	21228.47
228.861	21208.18
228.934	21209.82
229.006	21206.59
229.079	21187.75
229.151	21165.33
229.224	21145.57
229.296	21146.35
229.369	21171.84
229.442	21182.21
229.514	21169.43
229.587	21186.16
229.659	21158.01
229.732	21162.11
229.804	21170.2
229.877	21182.3
229.949	21175.12
230.022	21197.34
230.094	21198.98
230.167	21188.76
230.239	21174.49
230.312	21176.42
230.384	21204.14
230.457	21210.59
230.529	21212.19
230.602	21228.43
230.674	21241.54
230.747	21257.06
230.819	21261.92
230.892	21225.82
230.964	21215.46
231.037	21221.2
231.109	21203.27
231.181	21205.44
231.254	21190.64
231.326	21180.37
231.399	21173.1
231.471	21170.59
231.544	21132.32
231.616	21132.22
231.688	21121.14
231.761	21109.04
231.833	21085.04
231.905	21047.59
231.978	21034.24
232.05	21013.95
232.122	20992.26
232.195	20978.43
232.267	20978
232.339	20968.31
232.412	20972.16
232.484	20967.78
232.556	20944.6
232.629	20962.81
232.701	20963.44
232.773	20955.54
232.846	20942.72
232.918	20929.32
232.99	20911.15
233.062	20911.82
233.135	20900.74
233.207	20874.33
233.279	20869.22
233.351	20863.92
233.424	20832.88
233.496	20800.16
233.568	20800.98
233.64	20771.58
233.713	20749.17
233.785	20718.37
233.857	20692.49
233.929	20657.02
234.001	20635.86
234.074	20632.83
234.146	20592.3
234.218	20568.29
234.29	20540.68
234.362	20508.54
234.434	20470.51
234.507	20433.11
234.579	20387.28
234.651	20353.26
234.723	20337.21
234.795	20317.79
234.867	20300.15
234.939	20303.81
235.012	20298.12
235.084	20282.99
235.156	20271.38
235.228	20248.29
235.3	20229.98
235.372	20210.37
235.444	20198.13
235.516	20155.81
235.588	20144.34
235.66	20118.42
235.732	20076.83
235.804	20121.65
235.876	20112.35
235.948	20101.31
236.02	20073.75
236.092	20052.83
236.164	20025.65
236.236	19998.57
236.308	19974.66
236.38	19942.38
236.452	19898.96
236.524	19865.13
236.596	19851.3
236.668	19834.19
236.74	19803.35
236.812	19777.23
236.884	19757.85
236.956	19735.16
237.028	19702.63
237.1	19663.16
237.172	19650.15
237.244	19646.34
237.316	19575.45
237.388	19535.98
237.46	19503.36
237.532	19492.18
237.604	19452.23
237.675	19447.02
237.747	19435.7
237.819	19392.62
237.891	19371.32
237.963	19341.44
238.035	19314.7
238.107	19249.88
238.178	19228.63
238.25	19196.97
238.322	19188.2
238.394	19136.87
238.466	19105.45
238.538	19083.29
238.609	19062.08
238.681	19010.81
238.753	18972.5
238.825	18936.65
238.897	18915.92
238.968	18900.41
239.04	18868.36
239.112	18867.78
239.184	18822.73
239.255	18774.39
239.327	18753.33
239.399	18713.58
239.471	18695.94
239.542	18670.16
239.614	18654.88
239.686	18597.2
239.758	18583.99
239.829	18538.98
239.901	18521.06
239.973	18488.82
240.044	18461.16
240.116	18423.33
240.188	18390.41
240.259	18354.17
240.331	18314.9
240.403	18284.78
240.474	18233.22
240.546	18190.42
240.618	18139.77
240.689	18106.28
240.761	18078.62
240.833	18059.1
240.904	18029.32
240.976	17998.77
241.048	17966.62
241.119	17936.65
241.191	17914.1
241.262	17892.84
241.334	17855.5
241.405	17829.62
241.477	17788.51
241.549	17756.27
241.62	17728.32
241.692	17702.44
241.763	17674.1
241.835	17639.55
241.906	17607.4
241.978	17560.95
242.049	17541.81
242.121	17516.71
242.192	17490.34
242.264	17446.92
242.335	17386.05
242.407	17365.91
242.478	17320.7
242.55	17278.58
242.621	17242.05
242.693	17201.18
242.764	17158
242.836	17120.22
242.907	17088.46
242.979	17060.03
243.05	17026.72
243.122	16994.63
243.193	16959.16
243.264	16909.76
243.336	16877.32
243.407	16850.67
243.479	16837.37
243.55	16801.17
243.622	16767.1
243.693	16731.72
243.764	16704.83
243.836	16673.41
243.907	16627.33
243.978	16600.63
244.05	16584.92
244.121	16533.2
244.192	16512.19
244.264	16462.11
244.335	16424.18
244.407	16370.2
244.478	16342.87
244.549	16315.11
244.62	16272.6
244.692	16238.09
244.763	16215.1
244.834	16179.68
244.906	16137.02
244.977	16109.5
245.048	16096.92
245.119	16058.36
245.191	16021.06
245.262	15976.57
245.333	15967.31
245.405	15938.11
245.476	15909.81
245.547	15882.19
245.618	15858.48
245.689	15826.86
245.761	15795.44
245.832	15765.98
245.903	15750.42
245.974	15723.67
246.045	15678.21
246.117	15657.58
246.188	15615.36
246.259	15570.77
246.33	15532.4
246.401	15500.59
246.473	15453.11
246.544	15402.41
246.615	15382.64
246.686	15340.32
246.757	15323.79
246.828	15277.18
246.899	15268.4
246.97	15218.18
247.042	15172.05
247.113	15151.42
247.184	15145.97
247.255	15116.86
247.326	15083.4
247.397	15042.82
247.468	15009.85
247.539	14997.94
247.61	14954.89
247.681	14938.31
247.752	14924.62
247.823	14886.64
247.894	14865.67
247.965	14822.48
248.037	14804.69
248.108	14764.92
248.179	14741.59
248.25	14707.61
248.321	14685.82
248.392	14638.53
248.463	14637.76
248.534	14605.03
248.605	14583.91
248.675	14543.04
248.746	14523.13
248.817	14504.81
248.888	14483.41
248.959	14437.37
249.03	14407.68
249.101	14378.32
249.172	14344.63
249.243	14298.11
249.314	14289
249.385	14253.03
249.456	14244.74
249.527	14208.44
249.598	14184
249.669	14158.17
249.739	14138.59
249.81	14106.25
249.881	14062.19
249.952	14034.37
250.023	14010.8
250.094	13963.8
250.165	13925.09
250.235	13896.65
250.306	13875.2
250.377	13841.36
250.448	13818.84
250.519	13773.77
250.59	13768.56
250.66	13743.21
250.731	13729.52
250.802	13701.46
250.873	13677.07
250.944	13647.47
251.014	13611.7
251.085	13611.27
251.156	13586.2
251.227	13575.06
251.297	13570.39
251.368	13554.91
251.439	13536.21
251.51	13522.08
251.58	13492.15
251.651	13470.98
251.722	13459.8
251.792	13407.93
251.863	13376.74
251.934	13375.05
252.005	13386.04
252.075	13354.52
252.146	13336.25
252.217	13327.57
252.287	13316.77
252.358	13295.75
252.429	13294.69
252.499	13272.57
252.57	13245.57
252.641	13231.35
252.711	13198.28
252.782	13158.17
252.852	13161.4
252.923	13138.21
252.994	13121.49
253.064	13116.28
253.135	13078.87
253.205	13051.2
253.276	13053.85
253.347	13054.48
253.417	13022.42
253.488	12989.26
253.558	12961.92
253.629	12939.8
253.699	12922.97
253.77	12908.37
253.841	12884.65
253.911	12857.7
253.982	12835.91
254.052	12824.83
254.123	12810.9
254.193	12802.46
254.264	12821.4
254.334	12786.36
254.405	12746.98
254.475	12708.99
254.546	12690.82
254.616	12687.49
254.687	12660.21
254.757	12642.52
254.827	12612.77
254.898	12595.66
254.968	12568.23
255.039	12547.07
255.109	12535.74
255.18	12500.02
255.25	12451.43
255.321	12439.14
255.391	12403.9
255.461	12404.48
255.532	12351.55
255.602	12324.66
255.673	12277.9
255.743	12247.87
255.813	12205.88
255.884	12202.7
255.954	12198.94
256.024	12186.99
256.095	12166.6
256.165	12141.05
256.235	12127.26
256.306	12099.74
256.376	12094.49
256.446	12087.06
256.517	12069.81
256.587	12067.88
256.657	12055.88
256.728	12044.41
256.798	12023.2
256.868	12002.81
256.938	11969.89
257.009	11967.96
257.079	11959.91
257.149	11971.77
257.219	11923.28
257.29	11913.16
257.36	11871.61
257.43	11855.99
257.5	11816.76
257.571	11790.63
257.641	11782.53
257.711	11748.55
257.781	11738.14
257.852	11715.05
257.922	11673.6
257.992	11658.66
258.062	11626.51
258.132	11614.7
258.202	11592.05
258.273	11578.8
258.343	11575.95
258.413	11550.22
258.483	11526.79
258.553	11491.03
258.623	11452.09
258.693	11439.22
258.764	11437.48
258.834	11430.78
258.904	11409.19
258.974	11379.31
259.044	11362.4
259.114	11343.26
259.184	11332.52
259.254	11316.8
259.324	11281
259.394	11272.03
259.464	11265.14
259.535	11240.9
259.605	11220.61
259.675	11189.62
259.745	11173.81
259.815	11147.4
259.885	11133.48
259.955	11150.64
260.025	11131.99
260.095	11118.64
260.165	11105.09
260.235	11099.79
260.305	11077.87
260.375	11054.73
260.445	11064.08
260.515	11062.73
260.585	11061.77
260.655	11039.79
260.725	11029.34
260.795	11023.12
260.865	11024.23
260.934	10999.41
261.004	10997.44
261.074	10973.24
261.144	10982.93
261.214	10980.62
261.284	10958.64
261.354	10949.01
261.424	10924.47
261.494	10922.02
261.564	10902.12
261.634	10900.62
261.703	10862.6
261.773	10851.57
261.843	10844.68
261.913	10827.62
