Data from 20250703_urea_0.1M_MAYP1162681_04-11-04-807.txt Node
Date: Fri Jul 04 04:11:04 BST 2025
User: adleo
Spectrometer: MAYP116268
Trigger mode: 0
Integration Time (sec): 1.000000E0
Scans to average: 1
Electric dark correction enabled: true
Nonlinearity correction enabled: true
Boxcar width: 10
XAxis mode: Wavelengths
Number of Pixels in Spectrum: 2068
>>>>>Begin Spectral Data<<<<<
179.565	1282.19
179.642	1341.32
179.718	1390.73
179.795	1434.16
179.871	1468.59
179.948	1488.12
180.024	1512.69
180.101	1535.86
180.177	1552.76
180.254	1573.96
180.33	1597.23
180.407	1659.15
180.483	1760.11
180.56	1857.8
180.636	1947.2
180.712	1933.5
180.789	1943.77
180.865	1957.56
180.942	1966.21
181.018	1979.28
181.095	1993.31
181.171	1997.69
181.248	1999.73
181.324	2013.67
181.4	2019.33
181.477	2030.84
181.553	2042.87
181.63	2063.37
181.706	2080.5
181.782	2087.01
181.859	2089.39
181.935	2097.38
182.011	2091.91
182.088	2112.13
182.164	2129.83
182.24	2144.43
182.317	2154.8
182.393	2154.84
182.469	2168.31
182.546	2184.77
182.622	2188.14
182.698	2181.2
182.775	2190
182.851	2204.84
182.927	2198.99
183.003	2193.09
183.08	2187.72
183.156	2197.76
183.232	2193.09
183.308	2180.87
183.385	2190.09
183.461	2210.03
183.537	2209.22
183.613	2224.26
183.69	2214.03
183.766	2205.84
183.842	2214.45
183.918	2221.4
183.995	2233.72
184.071	2236.72
184.147	2228.87
184.223	2218.22
184.299	2236.3
184.375	2226.45
184.452	2233.97
184.528	2284.66
184.604	2297.84
184.68	2311.21
184.756	2317.35
184.832	2322.44
184.908	2327.29
184.985	2327.29
185.061	2309.97
185.137	2320.82
185.213	2308.69
185.289	2307.22
185.365	2297.22
185.441	2294.61
185.517	2304.6
185.593	2301.13
185.669	2299.46
185.745	2311.74
185.822	2325.01
185.898	2313.07
185.974	2325.1
186.05	2317.72
186.126	2283.41
186.202	2276.84
186.278	2274.51
186.354	2266.89
186.43	2274.23
186.506	2274.13
186.582	2273.27
186.658	2280.98
186.734	2258.14
186.81	2260
186.886	2261.71
186.962	2273.89
187.038	2272.42
187.114	2265.75
187.19	2276.08
187.266	2266.37
187.341	2268.23
187.417	2264.8
187.493	2263.95
187.569	2267.42
187.645	2258.95
187.721	2245.39
187.797	2252.67
187.873	2254.09
187.949	2249.86
188.025	2244.34
188.101	2246.57
188.176	2254.28
188.252	2247.24
188.328	2256.85
188.404	2258.61
188.48	2256.99
188.556	2251.66
188.632	2252.18
188.707	2250.52
188.783	2245.47
188.859	2239.1
188.935	2226.49
189.011	2232.24
189.086	2227.87
189.162	2218.97
189.238	2216.59
189.314	2214.45
189.39	2207.84
189.465	2199.6
189.541	2213.93
189.617	2196.28
189.693	2194.13
189.768	2196.42
189.844	2223.55
189.92	2212.9
189.996	2219.66
190.071	2231.7
190.147	2231.89
190.223	2238.36
190.298	2232.51
190.374	2216.61
190.45	2228.7
190.526	2237.93
190.601	2231.17
190.677	2232.17
190.753	2258.45
190.828	2260.78
190.904	2277.01
190.98	2293
191.055	2307.19
191.131	2301
191.207	2326.94
191.282	2336.45
191.358	2324.98
191.433	2309.18
191.509	2324.78
191.585	2322.92
191.66	2322.49
191.736	2330.3
191.811	2320.54
191.887	2338.68
191.963	2365.09
192.038	2373.33
192.114	2371.38
192.189	2377.75
192.265	2375.8
192.34	2353.9
192.416	2353.76
192.491	2350.09
192.567	2354.04
192.642	2355.04
192.718	2354.76
192.793	2336.53
192.869	2332.77
192.944	2337.29
193.02	2345
193.095	2348.66
193.171	2352.99
193.246	2353.23
193.322	2348.42
193.397	2349.85
193.473	2333.71
193.548	2315.24
193.624	2321.43
193.699	2322.1
193.775	2338.67
193.85	2340.19
193.925	2352.23
194.001	2352.8
194.076	2342.71
194.152	2332.24
194.227	2322.67
194.302	2312.96
194.378	2317.2
194.453	2311.73
194.529	2323.15
194.604	2306.59
194.679	2300.02
194.755	2280.75
194.83	2292.8
194.905	2291.61
194.981	2301.18
195.056	2292.85
195.131	2298.23
195.207	2293.23
195.282	2283.57
195.357	2263.72
195.433	2278.28
195.508	2266
195.583	2272.99
195.659	2289.51
195.734	2295.46
195.809	2296.56
195.884	2306.02
195.96	2307.97
196.035	2324.92
196.11	2321.35
196.185	2334.1
196.261	2339.48
196.336	2371.13
196.411	2358.56
196.486	2364.75
196.561	2357.56
196.637	2367.69
196.712	2385.88
196.787	2389.26
196.862	2404.11
196.937	2414.44
197.013	2419.63
197.088	2430.05
197.163	2454.92
197.238	2471.93
197.313	2471.45
197.388	2485.07
197.464	2516.27
197.539	2528.5
197.614	2519.12
197.689	2532.12
197.764	2551.8
197.839	2573.42
197.914	2568.32
197.989	2595
198.065	2607.85
198.14	2660.99
198.215	2692.24
198.29	2700.87
198.365	2715.11
198.44	2726.83
198.515	2758.13
198.59	2776
198.665	2804.45
198.74	2813.27
198.815	2812.6
198.89	2840.1
198.965	2875.8
199.04	2869.66
199.115	2885.19
199.19	2932.75
199.265	2936.75
199.34	2945
199.415	2977.05
199.49	2998.87
199.565	3003.59
199.64	3036.2
199.715	3033.43
199.79	3038.39
199.865	3048.79
199.94	3046.69
200.015	3081.12
200.09	3085.75
200.165	3093.52
200.24	3098.48
200.315	3141.35
200.39	3160.52
200.464	3165.95
200.539	3165.33
200.614	3184.55
200.689	3209.78
200.764	3215.75
200.839	3233.96
200.914	3242.49
200.989	3233.33
201.063	3249.5
201.138	3230.2
201.213	3226.62
201.288	3207.73
201.363	3214.84
201.438	3216.61
201.512	3236.39
201.587	3217.64
201.662	3222.6
201.737	3235.1
201.812	3239.2
201.886	3205.45
201.961	3214.8
202.036	3201.79
202.111	3198.97
202.186	3169.23
202.26	3149.95
202.335	3129.25
202.41	3125.05
202.485	3105.93
202.559	3085.29
202.634	3057.77
202.709	3069.73
202.784	3049.23
202.858	3050.56
202.933	3031.11
203.008	3025.86
203.082	3008.27
203.157	3011.32
203.232	2972.67
203.306	2955.49
203.381	2930.6
203.456	2910.53
203.53	2892.64
203.605	2881.34
203.68	2864.41
203.754	2865.56
203.829	2863.13
203.904	2851.64
203.978	2852.4
204.053	2870.57
204.127	2871.71
204.202	2884.91
204.277	2882.53
204.351	2890.87
204.426	2902.94
204.5	2913.66
204.575	2897.98
204.65	2924.93
204.724	2942.39
204.799	2972.75
204.873	2994.64
204.948	3022.11
205.022	3038.8
205.097	3062.8
205.171	3108.49
205.246	3146
205.32	3183.28
205.395	3218.55
205.469	3248.92
205.544	3291.46
205.618	3318.43
205.693	3380.77
205.767	3413.65
205.842	3485.22
205.916	3533.97
205.991	3572.36
206.065	3632.15
206.14	3706.95
206.214	3761.42
206.289	3811.6
206.363	3886.81
206.438	3952.31
206.512	4025.44
206.586	4115.12
206.661	4191.75
206.735	4238.79
206.81	4317.16
206.884	4408.51
206.958	4471.46
207.033	4569.13
207.107	4658.05
207.181	4770.71
207.256	4841.04
207.33	4945.41
207.405	5047.73
207.479	5152.73
207.553	5250.63
207.628	5324.25
207.702	5422.14
207.776	5513.21
207.851	5607.78
207.925	5713.58
207.999	5806.62
208.073	5905.09
208.148	6004.55
208.222	6092.22
208.296	6226.11
208.371	6341.24
208.445	6452
208.519	6586.65
208.593	6702.08
208.668	6803.87
208.742	6911.04
208.816	7023.04
208.89	7151.11
208.965	7255.44
209.039	7375.04
209.113	7500.44
209.187	7632.93
209.261	7741.71
209.336	7875.63
209.41	8006.91
209.484	8122.41
209.558	8258.25
209.632	8377.8
209.707	8497.36
209.781	8631.41
209.855	8763.05
209.929	8892.02
210.003	9006.67
210.077	9116.38
210.151	9280.87
210.226	9421.52
210.3	9559.99
210.374	9689.32
210.448	9792.62
210.522	9910.77
210.596	10025.03
210.67	10146.75
210.744	10302.87
210.818	10444.93
210.892	10571.64
210.966	10676.52
211.041	10798.23
211.115	10899.46
211.189	11030.43
211.263	11153.4
211.337	11253.53
211.411	11363.7
211.485	11466.31
211.559	11583.61
211.633	11683.85
211.707	11744.44
211.781	11856.75
211.855	11923.07
211.929	12018.4
212.003	12102.94
212.077	12212.94
212.151	12317.44
212.225	12415.24
212.299	12495.02
212.373	12574.03
212.447	12658.82
212.52	12784.97
212.594	12878.54
212.668	12982.61
212.742	13065.86
212.816	13150.13
212.89	13241.33
212.964	13331.24
213.038	13423.17
213.112	13528.3
213.186	13634.07
213.26	13702.66
213.333	13740.46
213.407	13827.66
213.481	13911.64
213.555	14011.28
213.629	14079.39
213.703	14145.92
213.777	14233.7
213.85	14302.06
213.924	14425.36
213.998	14509.72
214.072	14579.09
214.146	14647.58
214.219	14721.29
214.293	14785.5
214.367	14866.77
214.441	14951.61
214.515	15018.18
214.588	15069.22
214.662	15106.43
214.736	15164.62
214.81	15243.33
214.883	15319.2
214.957	15370.73
215.031	15427.13
215.105	15464.87
215.178	15519.15
215.252	15590.49
215.326	15632.57
215.4	15676.24
215.473	15684.43
215.547	15721.5
215.621	15769.41
215.694	15835.73
215.768	15871.64
215.842	15921.91
215.915	15965.58
215.989	15997.53
216.063	16043.56
216.136	16089.69
216.21	16140.44
216.284	16194.71
216.357	16247.68
216.431	16306.82
216.504	16381.14
216.578	16466.93
216.652	16536.24
216.725	16587.08
216.799	16645.01
216.873	16687.86
216.946	16746.52
217.02	16792.93
217.093	16848.98
217.167	16885.13
217.24	16914.19
217.314	16956.36
217.387	17001.95
217.461	17046.58
217.535	17117.52
217.608	17153.18
217.682	17205.67
217.755	17265.86
217.829	17313.09
217.902	17368.37
217.976	17412.66
218.049	17446.3
218.123	17472.51
218.196	17524.46
218.27	17572.99
218.343	17606.05
218.417	17664.99
218.49	17710.63
218.563	17776.03
218.637	17827.88
218.71	17886.82
218.784	17940.41
218.857	18001.47
218.931	18052.64
219.004	18101.65
219.077	18149.75
219.151	18202.86
219.224	18262.95
219.298	18302.85
219.371	18354.37
219.444	18386.99
219.518	18434.51
219.591	18484.38
219.665	18560.33
219.738	18613
219.811	18648.86
219.885	18712.13
219.958	18765.67
220.031	18809.09
220.105	18851.54
220.178	18892.99
220.251	18930.57
220.325	18984.02
220.398	19038.62
220.471	19086.23
220.544	19136.78
220.618	19173.74
220.691	19210.85
220.764	19241.93
220.838	19293.97
220.911	19338.07
220.984	19400.91
221.057	19449.05
221.131	19492.85
221.204	19505.62
221.277	19557.72
221.35	19624.37
221.424	19641.47
221.497	19679.21
221.57	19722.53
221.643	19764.6
221.716	19810.57
221.79	19839.58
221.863	19870.76
221.936	19897.32
222.009	19929.65
222.082	19968.49
222.155	19986.85
222.229	20050.8
222.302	20087.67
222.375	20114.13
222.448	20147.19
222.521	20179.43
222.594	20208.73
222.667	20220.87
222.74	20257.6
222.814	20277.74
222.887	20306.9
222.96	20351.86
223.033	20387.52
223.106	20417.98
223.179	20462.95
223.252	20483.86
223.325	20513.16
223.398	20545.74
223.471	20568.3
223.544	20591.38
223.617	20612.1
223.69	20647.96
223.763	20650.99
223.837	20675.57
223.91	20704.15
223.983	20698.47
224.056	20697.07
224.129	20720.39
224.202	20755.24
224.275	20765.65
224.348	20776.59
224.42	20779.58
224.493	20775.29
224.566	20782.71
224.639	20803.34
224.712	20808.59
224.785	20825.51
224.858	20846.52
224.931	20852.78
225.004	20869.8
225.077	20893.94
225.15	20871.72
225.223	20879.97
225.296	20912.45
225.369	20900.74
225.442	20904.11
225.514	20925.03
225.587	20941.13
225.66	20949.61
225.733	20967.25
225.806	20987.49
225.879	21002.96
225.952	21003.25
226.025	21032.41
226.097	21057.76
226.17	21059.83
226.243	21043.06
226.316	21042.87
226.389	21044.84
226.461	21057.95
226.534	21073.43
226.607	21076.75
226.68	21110.63
226.753	21122.58
226.825	21114.01
226.898	21145.72
226.971	21153.38
227.044	21168.37
227.117	21178.93
227.189	21189.29
227.262	21199.26
227.335	21205.15
227.407	21193.92
227.48	21206.06
227.553	21207.12
227.626	21203.46
227.698	21210.59
227.771	21218.54
227.844	21217.87
227.916	21227.51
227.989	21219.65
228.062	21202.73
228.134	21221.92
228.207	21228.14
228.28	21230.21
228.352	21223.41
228.425	21224.67
228.498	21232.38
228.57	21234.74
228.643	21256.72
228.716	21254.84
228.788	21237.44
228.861	21225.15
228.934	21243.41
229.006	21239.37
229.079	21238.55
229.151	21224.95
229.224	21201.05
229.296	21210.21
229.369	21232.91
229.442	21252.57
229.514	21240.67
229.587	21263.56
229.659	21239.7
229.732	21235.66
229.804	21234.89
229.877	21257.54
229.949	21260.53
230.022	21272.19
230.094	21261.68
230.167	21245.44
230.239	21225.49
230.312	21234.11
230.384	21256.38
230.457	21258.07
230.529	21254.98
230.602	21247.32
230.674	21250.98
230.747	21260.91
230.819	21269.06
230.892	21237.87
230.964	21227.17
231.037	21231.99
231.109	21218.64
231.181	21230.02
231.254	21219.22
231.326	21205
231.399	21196.57
231.471	21179.12
231.544	21147.94
231.616	21148.13
231.688	21143.02
231.761	21130.54
231.833	21116.51
231.905	21073.42
231.978	21050.87
232.05	21032.89
232.122	21027.93
232.195	21004.07
232.267	21009.23
232.339	20991.3
232.412	20988.7
232.484	20966.96
232.556	20938.96
232.629	20945.75
232.701	20932.5
232.773	20916.02
232.846	20900.84
232.918	20882.86
232.99	20876.54
233.062	20878.76
233.135	20865.84
233.207	20840.06
233.279	20836.78
233.351	20816.45
233.424	20806.23
233.496	20787.38
233.568	20793.75
233.64	20756.49
233.713	20741.46
233.785	20721.17
233.857	20701.12
233.929	20671.72
234.001	20662.61
234.074	20668.83
234.146	20622.9
234.218	20602.13
234.29	20590.41
234.362	20559.43
234.434	20520.1
234.507	20476.68
234.579	20431.67
234.651	20406.51
234.723	20390.75
234.795	20380.58
234.867	20367.43
234.939	20366.65
235.012	20344.97
235.084	20326.65
235.156	20316.92
235.228	20292.97
235.3	20271.43
235.372	20248.82
235.444	20240
235.516	20201.64
235.588	20170.17
235.66	20150.7
235.732	20111.91
235.804	20147.33
235.876	20145.5
235.948	20136.39
236.02	20118.37
236.092	20095.72
236.164	20066.04
236.236	20040.16
236.308	20002.95
236.38	19979.68
236.452	19936.93
236.524	19917.17
236.596	19904.5
236.668	19884.98
236.74	19852.4
236.812	19826.86
236.884	19809.13
236.956	19780.31
237.028	19745.18
237.1	19706.73
237.172	19686.87
237.244	19685.76
237.316	19612.12
237.388	19572.51
237.46	19531.65
237.532	19527.41
237.604	19484.56
237.675	19483.02
237.747	19457.58
237.819	19419.75
237.891	19391.94
237.963	19352.09
238.035	19311.8
238.107	19238.8
238.178	19227.95
238.25	19204.34
238.322	19198.8
238.394	19147.91
238.466	19112.06
238.538	19086.28
238.609	19066.52
238.681	19013.56
238.753	18960.16
238.825	18926.19
238.897	18894.96
238.968	18881.57
239.04	18833.47
239.112	18839.06
239.184	18791.26
239.255	18758.44
239.327	18734.97
239.399	18700.9
239.471	18682.64
239.542	18658.59
239.614	18649.68
239.686	18584.67
239.758	18565.97
239.829	18510.07
239.901	18490.75
239.973	18456.34
240.044	18423.42
240.116	18395.33
240.188	18370.12
240.259	18342.08
240.331	18299.91
240.403	18269.79
240.474	18221.89
240.546	18180.16
240.618	18123.29
240.689	18085.7
240.761	18053.51
240.833	18040.12
240.904	18001.51
240.976	17959.93
241.048	17928.6
241.119	17898.34
241.191	17877.33
241.262	17852.89
241.334	17818.77
241.405	17787.31
241.477	17753.47
241.549	17728.27
241.62	17697.81
241.692	17674.97
241.763	17660.9
241.835	17634.49
241.906	17605
241.978	17562.54
242.049	17545.24
242.121	17526.49
242.192	17503.45
242.264	17459.5
242.335	17407.36
242.407	17379.65
242.478	17353.86
242.55	17324.03
242.621	17284.37
242.693	17243.79
242.764	17209.19
242.836	17166.49
242.907	17142.1
242.979	17115.21
243.05	17079.88
243.122	17052.27
243.193	17016.51
243.264	16952.79
243.336	16916.31
243.407	16895.59
243.479	16884.16
243.55	16852.07
243.622	16823.92
243.693	16787.73
243.764	16765.75
243.836	16723.05
243.907	16693.79
243.978	16656.25
244.05	16626.17
244.121	16573.93
244.192	16549.4
244.264	16498.6
244.335	16470.26
244.407	16413.24
244.478	16389.09
244.549	16350.92
244.62	16302
244.692	16267.4
244.763	16249.56
244.834	16213.7
244.906	16171.43
244.977	16133.89
245.048	16115.91
245.119	16078.7
245.191	16036.96
245.262	15985.1
245.333	15964.18
245.405	15922.73
245.476	15895.11
245.547	15869.37
245.618	15847.64
245.689	15819.34
245.761	15788.59
245.832	15756.44
245.903	15738.75
245.974	15705.45
246.045	15672.14
246.117	15655.99
246.188	15612.56
246.259	15567.4
246.33	15533.42
246.401	15501.17
246.473	15458.42
246.544	15416.05
246.615	15386.5
246.686	15355.6
246.757	15345.82
246.828	15308.32
246.899	15297.33
246.97	15246.76
247.042	15201.26
247.113	15186.22
247.184	15176.87
247.255	15143.56
247.326	15109.82
247.397	15071.93
247.468	15045.56
247.539	15017.46
247.61	14973.98
247.681	14953.11
247.752	14944.87
247.823	14897
247.894	14864.51
247.965	14818.72
248.037	14789.6
248.108	14745.06
248.179	14713.34
248.25	14678.11
248.321	14656.46
248.392	14615.39
248.463	14616.07
248.534	14587
248.605	14561.88
248.675	14519.71
248.746	14500.04
248.817	14477.14
248.888	14455.98
248.959	14403.58
249.03	14385.84
249.101	14361.79
249.172	14333.59
249.243	14272.99
249.314	14269.28
249.385	14241.8
249.456	14238.77
249.527	14210.71
249.598	14192.73
249.669	14162.07
249.739	14140.76
249.81	14118.83
249.881	14076.5
249.952	14049.03
250.023	14025.65
250.094	13986.5
250.165	13950.11
250.235	13919.84
250.306	13896.84
250.377	13861.6
250.448	13843.77
250.519	13795.22
250.59	13785.48
250.66	13749.04
250.731	13747.64
250.802	13720.69
250.873	13707.2
250.944	13676.49
251.014	13633.92
251.085	13641.49
251.156	13618.06
251.227	13605.87
251.297	13589.77
251.368	13582.05
251.439	13561.03
251.51	13547.54
251.58	13512.73
251.651	13489.64
251.722	13473.64
251.792	13439.51
251.863	13412.08
251.934	13406.68
252.005	13408.89
252.075	13380.16
252.146	13373.46
252.217	13360.83
252.287	13346.66
252.358	13309.88
252.429	13308.09
252.499	13282.59
252.57	13249.28
252.641	13239.64
252.711	13210.04
252.782	13175.33
252.852	13169.6
252.923	13148
252.994	13123.08
253.064	13109.92
253.135	13069.62
253.205	13037.13
253.276	13026.96
253.347	13018.95
253.417	12988.34
253.488	12958.79
253.558	12930.74
253.629	12910.78
253.699	12888.31
253.77	12866.86
253.841	12843.19
253.911	12821.6
253.982	12808.82
254.052	12795.61
254.123	12782.21
254.193	12759.07
254.264	12774.4
254.334	12737.14
254.405	12701.28
254.475	12669.7
254.546	12647.05
254.616	12646.23
254.687	12634.46
254.757	12621.5
254.827	12600
254.898	12577.29
254.968	12562.59
255.039	12537.48
255.109	12516.65
255.18	12483.15
255.25	12445.89
255.321	12432.73
255.391	12391.66
255.461	12387.08
255.532	12339.41
255.602	12309.66
255.673	12270.62
255.743	12237.17
255.813	12194.65
255.884	12186.89
255.954	12165.49
256.024	12164.72
256.095	12149
256.165	12114.83
256.235	12095.93
256.306	12068.65
256.376	12063.69
256.446	12046.72
256.517	12032.74
256.587	12028.45
256.657	12015.68
256.728	12004.16
256.798	11993.22
256.868	11984.2
256.938	11953.4
257.009	11944.87
257.079	11938.51
257.149	11945.79
257.219	11905.59
257.29	11897.2
257.36	11857.68
257.43	11860.18
257.5	11819.84
257.571	11797.19
257.641	11794.39
257.711	11765.9
257.781	11755.44
257.852	11742.53
257.922	11706.33
257.992	11692.11
258.062	11667.91
258.132	11650.18
258.202	11623.57
258.273	11598.17
258.343	11595.81
258.413	11573.74
258.483	11554.6
258.553	11518.17
258.623	11498.21
258.693	11488.48
258.764	11480.67
258.834	11481.78
258.904	11459.03
258.974	11426.64
259.044	11402.93
259.114	11387.12
259.184	11372.08
259.254	11353.14
259.324	11307.41
259.394	11299.17
259.464	11290.39
259.535	11272.27
259.605	11254.06
259.675	11228.76
259.745	11223.31
259.815	11189.09
259.885	11162.97
259.955	11170.88
260.025	11144.04
260.095	11114.35
260.165	11099.7
260.235	11101.1
260.305	11076.23
260.375	11055.02
260.445	11069.05
260.515	11066.25
260.585	11062.2
260.655	11046.88
260.725	11041.58
260.795	11034.4
260.865	11034.4
260.934	11005.43
261.004	10992.9
261.074	10975.41
261.144	10976.57
261.214	10960.95
261.284	10940.47
261.354	10937.01
261.424	10907.22
261.494	10910.93
261.564	10899.13
261.634	10896.96
261.703	10862.36
261.773	10855.47
261.843	10843.28
261.913	10822.03
261.983	10794.27
262.053	10778.61
