Data from 20250703_standard_H2O_MAYP1162681_10-58-18-859.txt Node
Date: Fri Jul 04 10:58:18 BST 2025
User: adleo
Spectrometer: MAYP116268
Trigger mode: 0
Integration Time (sec): 1.000000E0
Scans to average: 1
Electric dark correction enabled: true
Nonlinearity correction enabled: true
Boxcar width: 10
XAxis mode: Wavelengths
Number of Pixels in Spectrum: 2068
>>>>>Begin Spectral Data<<<<<
179.565	1234.59
179.642	1295.31
179.718	1341.7
179.795	1383.59
179.871	1414.98
179.948	1433.09
180.024	1454
180.101	1475.63
180.177	1490.47
180.254	1514.76
180.33	1538.11
180.407	1594.04
180.483	1691.2
180.56	1784.47
180.636	1870.45
180.712	1857.94
180.789	1868.25
180.865	1882.46
180.942	1890.35
181.018	1902.48
181.095	1917.17
181.171	1919.79
181.248	1919.6
181.324	1935.34
181.4	1940.66
181.477	1953.17
181.553	1967.57
181.63	1987.88
181.706	2004.38
181.782	2013.03
181.859	2013.98
181.935	2017.45
182.011	2014.17
182.088	2032.91
182.164	2054.99
182.24	2068.4
182.317	2077.95
182.393	2077.29
182.469	2093.41
182.546	2106.92
182.622	2113.24
182.698	2107.58
182.775	2121.9
182.851	2138.22
182.927	2129.46
183.003	2125.52
183.08	2119
183.156	2125.23
183.232	2125.04
183.308	2115.29
183.385	2122.47
183.461	2140.03
183.537	2143.07
183.613	2157.53
183.69	2148.06
183.766	2135.64
183.842	2144.4
183.918	2148.92
183.995	2162.23
184.071	2162.09
184.147	2154.81
184.223	2142.45
184.299	2155.06
184.375	2145.97
184.452	2152.97
184.528	2201.55
184.604	2213.39
184.68	2227.18
184.756	2238.61
184.832	2242.03
184.908	2247.36
184.985	2247.31
185.061	2230.42
185.137	2240.37
185.213	2227.43
185.289	2232.09
185.365	2225.48
185.441	2225.67
185.517	2241.18
185.593	2241.33
185.669	2243.66
185.745	2259.07
185.822	2277.05
185.898	2270.34
185.974	2283.04
186.05	2275.24
186.126	2247.36
186.202	2245.03
186.278	2246.03
186.354	2239.13
186.43	2252.08
186.506	2256.84
186.582	2264.4
186.658	2277.77
186.734	2267.97
186.81	2280.67
186.886	2287.61
186.962	2309.31
187.038	2315.79
187.114	2319.74
187.19	2332.4
187.266	2333.31
187.341	2343.69
187.417	2350.68
187.493	2361.3
187.569	2375.2
187.645	2384.91
187.721	2386.72
187.797	2409.76
187.873	2431.48
187.949	2448.14
188.025	2463.34
188.101	2491.48
188.176	2522.86
188.252	2544.67
188.328	2579.24
188.404	2609.44
188.48	2638.45
188.556	2666.61
188.632	2701.26
188.707	2736.15
188.783	2775.48
188.859	2805.59
188.935	2830.66
189.011	2877.66
189.086	2909.54
189.162	2939.61
189.238	2973.69
189.314	3011.35
189.39	3044.53
189.465	3072.67
189.541	3126.09
189.617	3146.5
189.693	3174.25
189.768	3213.43
189.844	3274.47
189.92	3306.67
189.996	3358.41
190.071	3413.69
190.147	3457.57
190.223	3516.46
190.298	3560.07
190.374	3601.82
190.45	3678.68
190.526	3755.13
190.601	3817.08
190.677	3890.99
190.753	3992.56
190.828	4074.44
190.904	4164.58
190.98	4256.06
191.055	4343.66
191.131	4406.18
191.207	4502.68
191.282	4583.06
191.358	4644.09
191.433	4695.91
191.509	4773.73
191.585	4832.35
191.66	4897.12
191.736	4966.05
191.811	5014.74
191.887	5087.97
191.963	5169.4
192.038	5225.01
192.114	5277.24
192.189	5333.69
192.265	5387.93
192.34	5431.43
192.416	5493.32
192.491	5560.62
192.567	5636.81
192.642	5718.71
192.718	5801.64
192.793	5876.59
192.869	5966.35
192.944	6059.47
193.02	6167.01
193.095	6271.74
193.171	6375.27
193.246	6471.57
193.322	6566.58
193.397	6666.04
193.473	6751.96
193.548	6822.65
193.624	6920.24
193.699	7006.49
193.775	7113.82
193.85	7196.13
193.925	7275.7
194.001	7350.12
194.076	7407.02
194.152	7462.88
194.227	7518.11
194.302	7572.38
194.378	7634.69
194.453	7697.96
194.529	7774.8
194.604	7823.76
194.679	7873.54
194.755	7924.57
194.83	8008.19
194.905	8084.01
194.981	8164.89
195.056	8233.31
195.131	8310.91
195.207	8392.67
195.282	8472.5
195.357	8535.17
195.433	8638.11
195.508	8716.71
195.583	8809.21
195.659	8911.36
195.734	9004.17
195.809	9093.13
195.884	9190.99
195.96	9278.18
196.035	9373.56
196.11	9450.7
196.185	9541.9
196.261	9628.04
196.336	9730.23
196.411	9787.07
196.486	9859.17
196.561	9923.57
196.637	9994.85
196.712	10085.22
196.787	10150.3
196.862	10227.42
196.937	10295.4
197.013	10363.52
197.088	10434.92
197.163	10520.49
197.238	10607.09
197.313	10671.12
197.388	10744.65
197.464	10844.64
197.539	10922.03
197.614	10982.84
197.689	11059.13
197.764	11139.66
197.839	11230.98
197.914	11294.6
197.989	11385.73
198.065	11466.84
198.14	11584.16
198.215	11680.93
198.29	11771.07
198.365	11853.15
198.44	11936.48
198.515	12037.32
198.59	12122.39
198.665	12218.17
198.74	12295.1
198.815	12352.7
198.89	12444.72
198.965	12545.56
199.04	12598.78
199.115	12677.11
199.19	12782.44
199.265	12853.64
199.34	12930.04
199.415	13024.09
199.49	13108.64
199.565	13177.96
199.64	13273.56
199.715	13335.45
199.79	13411.14
199.865	13467.63
199.94	13535.65
200.015	13629.7
200.09	13700.9
200.165	13770.47
200.24	13846.29
200.315	13951.48
200.39	14043.02
200.464	14111.33
200.539	14173.47
200.614	14259.61
200.689	14351.15
200.764	14425.72
200.839	14509.89
200.914	14582.54
200.989	14632.38
201.063	14714.66
201.138	14765.76
201.213	14819.99
201.288	14869.93
201.363	14942.09
201.438	15009.77
201.512	15087.14
201.587	15135.87
201.662	15199.98
201.737	15274.69
201.812	15336.01
201.886	15364.88
201.961	15432.26
202.036	15489.67
202.111	15554.98
202.186	15586.84
202.26	15631.24
202.335	15673.75
202.41	15738.43
202.485	15785.04
202.559	15838.06
202.634	15877.88
202.709	15955.09
202.784	16002.23
202.858	16059.93
202.933	16104.17
203.008	16170.73
203.082	16214.11
203.157	16267.66
203.232	16292.96
203.306	16331.91
203.381	16369.36
203.456	16410.37
203.53	16451.87
203.605	16485.8
203.68	16526.43
203.754	16589.13
203.829	16638.68
203.904	16679.84
203.978	16729.09
204.053	16803.94
204.127	16850.35
204.202	16911.46
204.277	16956.72
204.351	17009.01
204.426	17059.52
204.5	17111.86
204.575	17130.89
204.65	17204.82
204.724	17262.8
204.799	17324.92
204.873	17387.47
204.948	17447.71
205.022	17498.12
205.097	17559.76
205.171	17635.76
205.246	17710.02
205.32	17763.9
205.395	17828.67
205.469	17877.01
205.544	17942.02
205.618	17985.87
205.693	18064.71
205.767	18118.64
205.842	18205.67
205.916	18263.93
205.991	18332.56
206.065	18392.75
206.14	18476.55
206.214	18536.84
206.289	18598.86
206.363	18673.84
206.438	18741.4
206.512	18813.64
206.586	18897.2
206.661	18966.16
206.735	19014.64
206.81	19068.32
206.884	19159.6
206.958	19206.92
207.033	19293.32
207.107	19365.56
207.181	19451.24
207.256	19506.61
207.33	19575
207.405	19645.74
207.479	19728.87
207.553	19787.13
207.628	19837.54
207.702	19905.25
207.776	19958.35
207.851	20011.46
207.925	20101
207.999	20156.13
208.073	20211.84
208.148	20277.58
208.222	20324.18
208.296	20418.2
208.371	20500.37
208.445	20567.32
208.519	20666.98
208.593	20738.31
208.668	20789.11
208.742	20854.8
208.816	20918.18
208.89	20998.62
208.965	21048.74
209.039	21113.13
209.113	21193.91
209.187	21277.82
209.261	21340.72
209.336	21425.6
209.41	21515.01
209.484	21571.64
209.558	21655.32
209.632	21720
209.707	21782.33
209.781	21864.51
209.855	21932.24
209.929	22007.83
210.003	22065.53
210.077	22113.45
210.151	22215.65
210.226	22303.15
210.3	22387.67
210.374	22467.45
210.448	22515.37
210.522	22585.32
210.596	22643.08
210.67	22711.35
210.744	22812.89
210.818	22896.29
210.892	22960.81
210.966	23010.9
211.041	23072.71
211.115	23122.09
211.189	23205.02
211.263	23284.29
211.337	23341
211.411	23418.93
211.485	23468.89
211.559	23545.95
211.633	23602.37
211.707	23619.54
211.781	23684.99
211.855	23701.96
211.929	23747.29
212.003	23792.67
212.077	23855.9
212.151	23926.75
212.225	23980.24
212.299	24011.59
212.373	24048.05
212.447	24099.62
212.52	24178.29
212.594	24231.64
212.668	24304.48
212.742	24339.78
212.816	24381.99
212.89	24425.84
212.964	24462.94
213.038	24505.83
213.112	24548.87
213.186	24610.86
213.26	24649.83
213.333	24643.85
213.407	24698.56
213.481	24745.79
213.555	24798.08
213.629	24833.25
213.703	24869.78
213.777	24919.23
213.85	24952.91
213.924	25037.02
213.998	25084.55
214.072	25122.34
214.146	25157.08
214.219	25185.31
214.293	25222.32
214.367	25255.52
214.441	25310.15
214.515	25340.65
214.588	25359.81
214.662	25374.81
214.736	25392.24
214.81	25423.6
214.883	25474.02
214.957	25495.79
215.031	25512.68
215.105	25524.06
215.178	25545.83
215.252	25562
215.326	25565.18
215.4	25571.22
215.473	25542.88
215.547	25555.48
215.621	25567.4
215.694	25599.17
215.768	25609.3
215.842	25624.02
215.915	25642.6
215.989	25632.08
216.063	25641.93
216.136	25668.09
216.21	25684.89
216.284	25718.05
216.357	25748.02
216.431	25769.98
216.504	25800.49
216.578	25846.06
216.652	25878.49
216.725	25893.93
216.799	25921.35
216.873	25947.42
216.946	25979.9
217.02	26006.21
217.093	26013.31
217.167	26011.33
217.24	26000.56
217.314	26010.17
217.387	26020.79
217.461	26029.04
217.535	26057.04
217.608	26060.95
217.682	26074.56
217.755	26095.08
217.829	26103.24
217.902	26121.92
217.976	26134.86
218.049	26139.16
218.123	26130.61
218.196	26162.28
218.27	26171.84
218.343	26174.64
218.417	26178.36
218.49	26180.72
218.563	26204.14
218.637	26218.62
218.71	26235.33
218.784	26267.48
218.857	26290.85
218.931	26318.17
219.004	26330.73
219.077	26344.58
219.151	26363.17
219.224	26370.99
219.298	26384.17
219.371	26386.2
219.444	26374.18
219.518	26383.5
219.591	26393.06
219.665	26432.07
219.738	26430.38
219.811	26420.73
219.885	26441.25
219.958	26457.08
220.031	26460.46
220.105	26469.78
220.178	26478.91
220.251	26487.21
220.325	26489.19
220.398	26494.8
220.471	26496.73
220.544	26503.78
220.618	26498.03
220.691	26509.23
220.764	26519.61
220.838	26520.43
220.911	26515.27
220.984	26549.89
221.057	26553.51
221.131	26560.08
221.204	26524.49
221.277	26543.81
221.35	26579.97
221.424	26573.16
221.497	26562.2
221.57	26555.44
221.643	26555.68
221.716	26552.5
221.79	26540.62
221.863	26534.29
221.936	26523.29
222.009	26503.1
222.082	26496.39
222.155	26485.24
222.229	26487.46
222.302	26463.13
222.375	26448.83
222.448	26449.75
222.521	26427.83
222.594	26406.87
222.667	26379.93
222.74	26380.51
222.814	26358.11
222.887	26325.13
222.96	26319.62
223.033	26321.8
223.106	26316.44
223.179	26301.66
223.252	26293.21
223.325	26277.47
223.398	26259.9
223.471	26240.3
223.544	26236.05
223.617	26222.58
223.69	26214.52
223.763	26169.04
223.837	26154.46
223.91	26145.82
223.983	26116.13
224.056	26077.47
224.129	26067.57
224.202	26051.45
224.275	26035.23
224.348	26006.17
224.42	25978.89
224.493	25934.29
224.566	25896.73
224.639	25884.62
224.712	25849.62
224.785	25813.99
224.858	25790.73
224.931	25757.91
225.004	25726.82
225.077	25696.66
225.15	25639.56
225.223	25614.22
225.296	25625.52
225.369	25591.49
225.442	25546.56
225.514	25520.02
225.587	25503.13
225.66	25472.48
225.733	25446.66
225.806	25412.63
225.879	25377.98
225.952	25341.6
226.025	25327.99
226.097	25322.2
226.17	25288.46
226.243	25242.04
226.316	25209.32
226.389	25186.07
226.461	25163.34
226.534	25137.86
226.607	25113.3
226.68	25111.42
226.753	25074.12
226.825	25015.82
226.898	24989.48
226.971	24961.98
227.044	24940.17
227.117	24907.17
227.189	24878.55
227.262	24854.33
227.335	24829.53
227.407	24795.52
227.48	24771.69
227.553	24735.36
227.626	24693.33
227.698	24664.28
227.771	24638.57
227.844	24600.03
227.916	24565.29
227.989	24518.26
228.062	24477.74
228.134	24464.08
228.207	24430.41
228.28	24387.77
228.352	24352.65
228.425	24327.38
228.498	24302.87
228.57	24265.54
228.643	24238.76
228.716	24209.77
228.788	24162.45
228.861	24109.68
228.934	24083.64
229.006	24047.27
229.079	24011.97
229.151	23969.04
229.224	23913.86
229.296	23882.66
229.369	23889.6
229.442	23866.84
229.514	23820.4
229.587	23809.11
229.659	23753.02
229.732	23723.36
229.804	23700.36
229.877	23703.92
229.949	23689.02
230.022	23670.6
230.094	23629.75
230.167	23601.64
230.239	23544.39
230.312	23511.27
230.384	23513.39
230.457	23492.6
230.529	23470.42
230.602	23442.36
230.674	23422.25
230.747	23412.94
230.819	23393.41
230.892	23310.28
230.964	23278.98
231.037	23263.74
231.109	23222.85
231.181	23190.45
231.254	23147.73
231.326	23117.26
231.399	23060.79
231.471	23004.81
231.544	22956.97
231.616	22931.66
231.688	22893.71
231.761	22861.56
231.833	22836.54
231.905	22768.12
231.978	22727.95
232.05	22678.97
232.122	22644.88
232.195	22593.83
232.267	22564.18
232.339	22524.59
232.412	22512.74
232.484	22468.04
232.556	22420.75
232.629	22407.2
232.701	22377.17
232.773	22336.29
232.846	22296.86
232.918	22263.93
232.99	22237.9
233.062	22208.3
233.135	22185.59
233.207	22144.14
233.279	22126.01
233.351	22089.42
233.424	22051.58
233.496	21997.98
233.568	21988.05
233.64	21933.49
233.713	21897
233.785	21863.11
233.857	21823.58
233.929	21767.09
234.001	21742.31
234.074	21728.14
234.146	21667.55
234.218	21627.54
234.29	21595.49
234.362	21548.11
234.434	21487.52
234.507	21443.08
234.579	21381.82
234.651	21326.83
234.723	21298.2
234.795	21260.6
234.867	21217.9
234.939	21201.61
235.012	21170.04
235.084	21128.68
235.156	21094.71
235.228	21052.68
235.3	21003.23
235.372	20965.49
235.444	20946.21
235.516	20892.23
235.588	20853.97
235.66	20814.2
235.732	20769.77
235.804	20782.01
235.876	20750.88
235.948	20731.7
236.02	20682.2
236.092	20645.82
236.164	20597.72
236.236	20549.19
236.308	20502.92
236.38	20464.61
236.452	20409.67
236.524	20373.43
236.596	20347.69
236.668	20325.28
236.74	20288.18
236.812	20257.58
236.884	20226.88
236.956	20191.26
237.028	20142.44
237.1	20088.04
237.172	20067.22
237.244	20051.31
237.316	19969.58
237.388	19925.82
237.46	19879.17
237.532	19860.09
237.604	19818.4
237.675	19806.36
237.747	19772.33
237.819	19721.2
237.891	19686.46
237.963	19641.45
238.035	19601.74
238.107	19527.29
238.178	19492.59
238.25	19449.31
238.322	19422.76
238.394	19353.9
238.466	19292.84
238.538	19258.67
238.609	19230.72
238.681	19169.19
238.753	19113.77
238.825	19071.55
238.897	19021.2
238.968	18999.61
239.04	18949.34
239.112	18931.08
239.184	18872.1
239.255	18827.52
239.327	18794.46
239.399	18758.71
239.471	18732.49
239.542	18690.47
239.614	18665.55
239.686	18596.4
239.758	18562.76
239.829	18508.26
239.901	18490.58
239.973	18465.81
240.044	18436.36
240.116	18388.8
240.188	18349.81
240.259	18312.37
240.331	18273.38
240.403	18257.34
240.474	18193.05
240.546	18139.17
240.618	18082.21
240.689	18042.89
240.761	18003.61
240.833	17985.97
240.904	17934.84
240.976	17898.94
241.048	17860.77
241.119	17829.69
241.191	17809.16
241.262	17788.39
241.334	17749.16
241.405	17711.72
241.477	17663.67
241.549	17620.05
241.62	17589.98
241.692	17563.43
241.763	17546.47
241.835	17512.25
241.906	17469.12
241.978	17420.59
242.049	17407.53
242.121	17388.54
242.192	17371.33
242.264	17323.19
242.335	17258.75
242.407	17237.45
242.478	17188.77
242.55	17154.99
242.621	17106.36
242.693	17060.82
242.764	17013.83
242.836	16969.78
242.907	16943.03
242.979	16918.6
243.05	16881.63
243.122	16855.7
243.193	16818.3
243.264	16746.11
243.336	16702.78
243.407	16687.84
243.479	16676.8
243.55	16637.57
243.622	16601.04
243.693	16547.11
243.764	16526.72
243.836	16489.18
243.907	16438.62
243.978	16399.96
244.05	16374.42
244.121	16325.93
244.192	16300.43
244.264	16250.21
244.335	16218.21
244.407	16160.13
244.478	16120.94
244.549	16083.83
244.62	16025.99
244.692	15985.51
244.763	15965.17
244.834	15928.34
244.906	15873.11
244.977	15839.37
245.048	15810.21
245.119	15768.52
245.191	15727.06
245.262	15673.61
245.333	15656.06
245.405	15635.87
245.476	15616.4
245.547	15583.14
245.618	15559.28
245.689	15529.92
245.761	15506.74
245.832	15469.96
245.903	15447.88
245.974	15423.83
246.045	15386.19
246.117	15379.25
246.188	15333.16
246.259	15289.16
246.33	15256.23
246.401	15223.79
246.473	15180.07
246.544	15151.44
246.615	15129.85
246.686	15098.42
246.757	15088.59
246.828	15050.12
246.899	15031.08
246.97	14983.21
247.042	14934.43
247.113	14911.34
247.184	14895.05
247.255	14862.03
247.326	14833.69
247.397	14805
247.468	14770.64
247.539	14743.74
247.61	14690.42
247.681	14670.37
247.752	14651.67
247.823	14610.55
247.894	14580.71
247.965	14537.37
248.037	14495.82
248.108	14442.36
248.179	14413.73
248.25	14382.44
248.321	14359.45
248.392	14312.93
248.463	14307.15
248.534	14285.02
248.605	14264.82
248.675	14234.02
248.746	14216.13
248.817	14196.47
248.888	14170.1
248.959	14123.92
249.03	14105.07
249.101	14084.77
249.172	14047.36
249.243	14000.89
249.314	13997.86
249.385	13968.4
249.456	13957.56
249.527	13927.43
249.598	13914.27
249.669	13887.85
249.739	13852.32
249.81	13826.43
249.881	13779.53
249.952	13748.24
250.023	13718.64
250.094	13681.19
250.165	13642.43
250.235	13613.02
250.306	13588.05
250.377	13551.08
250.448	13531.75
250.519	13483.35
250.59	13472.26
250.66	13451.97
250.731	13441.12
250.802	13407.47
250.873	13389.92
250.944	13356.37
251.014	13322.63
251.085	13319.3
251.156	13295.15
251.227	13296.21
251.297	13282.42
251.368	13277.31
251.439	13264.64
251.51	13250.8
251.58	13213.1
251.651	13178.97
251.722	13154.82
251.792	13112.26
251.863	13085.6
251.934	13074.9
252.005	13085.69
252.075	13056.34
252.146	13041.15
252.217	13025.05
252.287	13009.72
252.358	12977.52
252.429	12976.51
252.499	12950.57
252.57	12925.36
252.641	12914.9
252.711	12879.9
252.782	12838.78
252.852	12833.14
252.923	12792.22
252.994	12775.63
253.064	12761.12
253.135	12735.14
253.205	12710.51
253.276	12710.6
253.347	12710.22
253.417	12682.6
253.488	12651.65
253.558	12628.61
253.629	12607.88
253.699	12592.65
253.77	12577.61
253.841	12562.66
253.911	12542.42
253.982	12530.22
254.052	12514.31
254.123	12493.44
254.193	12472.23
254.264	12490.36
254.334	12460.23
254.405	12432.03
254.475	12393.66
254.546	12377.27
254.616	12374.14
254.687	12356.11
254.757	12330.27
254.827	12299.9
254.898	12279.8
254.968	12260.04
255.039	12231.79
255.109	12221
255.18	12191.06
255.25	12141.37
255.321	12122.33
255.391	12083.72
255.461	12087.04
255.532	12044.53
255.602	12023.75
255.673	11983.36
255.743	11950.92
255.813	11909.8
255.884	11909.32
255.954	11899.2
256.024	11900.36
256.095	11876.93
256.165	11840.69
256.235	11830.03
256.306	11806.32
256.376	11801.45
256.446	11787.62
256.517	11772.19
256.587	11759.76
256.657	11741.25
256.728	11736.38
256.798	11717.92
256.868	11701.87
256.938	11667.84
257.009	11658.83
257.079	11648.27
257.149	11652.52
257.219	11613.14
257.29	11600.7
257.36	11561.71
257.43	11548.84
257.5	11502.14
257.571	11480.07
257.641	11478.67
257.711	11451.05
257.781	11437.12
257.852	11416.16
257.922	11375.91
257.992	11353.31
258.062	11324.49
258.132	11315.19
258.202	11290.22
258.273	11270.61
258.343	11267.52
258.413	11243.38
258.483	11222.9
258.553	11190.75
258.623	11170.61
258.693	11163.04
258.764	11163.43
258.834	11161.93
258.904	11143.33
258.974	11115.48
259.044	11097.16
259.114	11081.36
259.184	11063.72
259.254	11040.64
259.324	10998.57
259.394	10990.95
259.464	10993.7
259.535	10975.48
259.605	10953.51
259.675	10933.13
259.745	10923.78
259.815	10898.09
259.885	10874.48
259.955	10883.78
260.025	10858.92
260.095	10842.2
260.165	10829.81
260.235	10822.82
260.305	10793.43
260.375	10763.46
260.445	10773.53
260.515	10769.43
260.585	10762.4
260.655	10744.28
260.725	10743.61
260.795	10744.71
260.865	10753.72
260.934	10728.14
261.004	10721.87
261.074	10705.25
261.144	10706.16
