Data from 20250703_urea_0.1M_MAYP1162681_16-11-05-265.txt Node
Date: Thu Jul 03 16:11:05 BST 2025
User: adleo
Spectrometer: MAYP116268
Trigger mode: 0
Integration Time (sec): 1.000000E0
Scans to average: 1
Electric dark correction enabled: true
Nonlinearity correction enabled: true
Boxcar width: 10
XAxis mode: Wavelengths
Number of Pixels in Spectrum: 2068
>>>>>Begin Spectral Data<<<<<
179.565	1293.07
179.642	1354.62
179.718	1403.01
179.795	1442.99
179.871	1478.77
179.948	1496.79
180.024	1519.2
180.101	1543.62
180.177	1558.69
180.254	1585.78
180.33	1611.2
180.407	1671.56
180.483	1774.42
180.56	1870.97
180.636	1961.22
180.712	1948.19
180.789	1958.65
180.865	1971.3
180.942	1979.33
181.018	1991.27
181.095	2004.16
181.171	2012.34
181.248	2013.34
181.324	2027.23
181.4	2036.31
181.477	2049.06
181.553	2064.94
181.63	2086.82
181.706	2104.14
181.782	2112.98
181.859	2111.17
181.935	2116.55
182.011	2112.69
182.088	2131.82
182.164	2154.24
182.24	2169.55
182.317	2180.73
182.393	2177.87
182.469	2192.95
182.546	2208.18
182.622	2212.65
182.698	2207.84
182.775	2218.17
182.851	2232.87
182.927	2223.97
183.003	2218.41
183.08	2212.03
183.156	2216.89
183.232	2214.03
183.308	2202.47
183.385	2212.55
183.461	2229.49
183.537	2228.35
183.613	2240.48
183.69	2228.68
183.766	2217.92
183.842	2224.63
183.918	2229.39
183.995	2244.76
184.071	2247.04
184.147	2244.05
184.223	2233.72
184.299	2249.81
184.375	2238.82
184.452	2247.39
184.528	2300.74
184.604	2313.11
184.68	2326.25
184.756	2337.95
184.832	2339.48
184.908	2343.71
184.985	2344.9
185.061	2329.01
185.137	2340.52
185.213	2332.15
185.289	2335.91
185.365	2325.92
185.441	2324.87
185.517	2336.68
185.593	2335.68
185.669	2333.39
185.745	2341.86
185.822	2356.8
185.898	2343.04
185.974	2353.61
186.05	2344.23
186.126	2310.15
186.202	2301.97
186.278	2295.35
186.354	2285.16
186.43	2294.4
186.506	2294.59
186.582	2290.59
186.658	2297.4
186.734	2276.65
186.81	2277.79
186.886	2278.93
186.962	2291.92
187.038	2289.4
187.114	2285.26
187.19	2291.4
187.266	2281.03
187.341	2282.03
187.417	2276.6
187.493	2280.6
187.569	2281.46
187.645	2274.75
187.721	2262.66
187.797	2272.32
187.873	2279.79
187.949	2274.17
188.025	2267.03
188.101	2269.32
188.176	2277.17
188.252	2273.27
188.328	2280.21
188.404	2279.97
188.48	2274.98
188.556	2268.74
188.632	2268.12
188.707	2269.12
188.783	2265.7
188.859	2260.08
188.935	2248.47
189.011	2254.99
189.086	2246.33
189.162	2238.67
189.238	2235.1
189.314	2229.92
189.39	2224.3
189.465	2212.55
189.541	2230.87
189.617	2215.79
189.693	2208.84
189.768	2209.89
189.844	2234.93
189.92	2225.51
189.996	2234.84
190.071	2246.02
190.147	2244.07
190.223	2252.78
190.298	2243.31
190.374	2228.08
190.45	2241.36
190.526	2250.78
190.601	2247.69
190.677	2250.44
190.753	2279.68
190.828	2284.39
190.904	2303.09
190.98	2316.37
191.055	2330.13
191.131	2320.89
191.207	2343.64
191.282	2353.49
191.358	2345.02
191.433	2326.5
191.509	2340.86
191.585	2337.81
191.66	2339.67
191.736	2349.05
191.811	2340.72
191.887	2356.71
191.963	2380.75
192.038	2386.22
192.114	2384.7
192.189	2388.51
192.265	2385.37
192.34	2361.37
192.416	2359.42
192.491	2352.8
192.567	2355.7
192.642	2356.94
192.718	2358.51
192.793	2343.66
192.869	2341.71
192.944	2342.71
193.02	2354.7
193.095	2359.75
193.171	2360.7
193.246	2358.46
193.322	2356.18
193.397	2354.04
193.473	2341.9
193.548	2323.09
193.624	2328.43
193.699	2328.43
193.775	2343.33
193.85	2345.09
193.925	2355.99
194.001	2355.56
194.076	2349.66
194.152	2340.09
194.227	2329.86
194.302	2315.35
194.378	2320.34
194.453	2316.58
194.529	2332.1
194.604	2316.96
194.679	2310.35
194.755	2295.7
194.83	2309.98
194.905	2306.84
194.981	2318.26
195.056	2307.75
195.131	2315.93
195.207	2312.74
195.282	2303.37
195.357	2284.8
195.433	2299.08
195.508	2285.42
195.583	2291.94
195.659	2306.93
195.734	2314.6
195.809	2316.12
195.884	2329.06
195.96	2326.92
196.035	2341.48
196.11	2337.1
196.185	2349.29
196.261	2352.28
196.336	2385.13
196.411	2369.27
196.486	2372.46
196.561	2368.46
196.637	2381.07
196.712	2395.31
196.787	2398.45
196.862	2413.59
196.937	2423.35
197.013	2431.92
197.088	2443.44
197.163	2468.11
197.238	2484.02
197.313	2482.45
197.388	2499.26
197.464	2529.46
197.539	2546.64
197.614	2540.41
197.689	2555.93
197.764	2573.23
197.839	2594.75
197.914	2588.22
197.989	2613.8
198.065	2629.13
198.14	2676.66
198.215	2704.48
198.29	2719.15
198.365	2736.5
198.44	2746.55
198.515	2776.09
198.59	2788.86
198.665	2818.02
198.74	2827.22
198.815	2829.51
198.89	2856.72
198.965	2889.33
199.04	2884.33
199.115	2899
199.19	2943.46
199.265	2942.85
199.34	2954.48
199.415	2993.02
199.49	3016.13
199.565	3025.47
199.64	3056.85
199.715	3054.56
199.79	3063.04
199.865	3071.15
199.94	3068.24
200.015	3102.29
200.09	3105.15
200.165	3111.02
200.24	3118.7
200.315	3160.42
200.39	3176.68
200.464	3178.92
200.539	3180.78
200.614	3199.38
200.689	3224.18
200.764	3234.78
200.839	3255.99
200.914	3260.48
200.989	3247.21
201.063	3261.9
201.138	3244.6
201.213	3243.12
201.288	3223.52
201.363	3230.1
201.438	3229.1
201.512	3249.32
201.587	3231.28
201.662	3238.77
201.737	3254.32
201.812	3264.97
201.886	3230.73
201.961	3243.67
202.036	3235.66
202.111	3231.51
202.186	3204.81
202.26	3188.25
202.335	3164.69
202.41	3159.58
202.485	3145.23
202.559	3127.01
202.634	3103.07
202.709	3119.04
202.784	3101.01
202.858	3109.17
202.933	3088.99
203.008	3087.42
203.082	3068.78
203.157	3074.31
203.232	3037.08
203.306	3020.91
203.381	2993.67
203.456	2979.8
203.53	2967.62
203.605	2958.95
203.68	2945.74
203.754	2950.98
203.829	2949.79
203.904	2945.4
203.978	2951.36
204.053	2973.25
204.127	2983.36
204.202	3003.29
204.277	3006.3
204.351	3023.75
204.426	3042.46
204.5	3066.35
204.575	3065.78
204.65	3114.41
204.724	3143.81
204.799	3191.73
204.873	3233.4
204.948	3278.45
205.022	3316.24
205.097	3354.21
205.171	3419.88
205.246	3488.33
205.32	3542.73
205.395	3603.96
205.469	3654.89
205.544	3723.26
205.618	3773.86
205.693	3857.78
205.767	3922.2
205.842	4021.44
205.916	4094.29
205.991	4169.75
206.065	4263.97
206.14	4367.56
206.214	4452.14
206.289	4537.72
206.363	4649.71
206.438	4755.69
206.512	4866.22
206.586	4991.78
206.661	5115.71
206.735	5211.32
206.81	5327.93
206.884	5470.35
206.958	5581.23
207.033	5728.19
207.107	5867.47
207.181	6036.8
207.256	6166.46
207.33	6325.79
207.405	6477.7
207.479	6649.39
207.553	6802.67
207.628	6929.92
207.702	7090.54
207.776	7236.81
207.851	7401.4
207.925	7577.23
207.999	7732.72
208.073	7892.84
208.148	8058.39
208.222	8207.91
208.296	8400.3
208.371	8587.71
208.445	8763.27
208.519	8960.68
208.593	9144.16
208.668	9312.77
208.742	9484.02
208.816	9653.26
208.89	9836.9
208.965	10013.59
209.039	10188.93
209.113	10380.41
209.187	10582.52
209.261	10759.13
209.336	10961.06
209.41	11154.81
209.484	11324.88
209.558	11528.39
209.632	11713.11
209.707	11899.53
209.781	12092.12
209.855	12289.2
209.929	12479.27
210.003	12659.06
210.077	12827.86
210.151	13053.11
210.226	13259.9
210.3	13456.62
210.374	13651.27
210.448	13829.72
210.522	14004.95
210.596	14179.45
210.67	14356.21
210.744	14568.84
210.818	14763.68
210.892	14938.94
210.966	15100.42
211.041	15283.4
211.115	15430.27
211.189	15623.6
211.263	15799.68
211.337	15962.6
211.411	16123.29
211.485	16270.73
211.559	16430.94
211.633	16592.74
211.707	16708.17
211.781	16863.45
211.855	16977
211.929	17113.98
212.003	17237.4
212.077	17397.65
212.151	17557.17
212.225	17714.71
212.299	17839.86
212.373	17970.75
212.447	18106.22
212.52	18265.06
212.594	18402.21
212.668	18546.88
212.742	18658.54
212.816	18785.23
212.89	18903.39
212.964	19034.57
213.038	19154.03
213.112	19292.15
213.186	19428.24
213.26	19534.35
213.333	19609.05
213.407	19734.39
213.481	19856.8
213.555	19983.54
213.629	20083.83
213.703	20177.27
213.777	20284.45
213.85	20380.55
213.924	20515.11
213.998	20629.19
214.072	20739.75
214.146	20835.32
214.219	20940.87
214.293	21035.53
214.367	21131.68
214.441	21249.91
214.515	21340.04
214.588	21418.46
214.662	21478.37
214.736	21549.08
214.81	21648.99
214.883	21743.89
214.957	21820.97
215.031	21899.24
215.105	21965.76
215.178	22038.84
215.252	22121.41
215.326	22167.16
215.4	22224.28
215.473	22252.77
215.547	22305.51
215.621	22361.05
215.694	22428.02
215.768	22472.32
215.842	22534.13
215.915	22591.4
215.989	22622.4
216.063	22670.38
216.136	22733.44
216.21	22792.06
216.284	22864
216.357	22921.38
216.431	22985.17
216.504	23048.28
216.578	23131.9
216.652	23191.88
216.725	23254.71
216.799	23318.27
216.873	23383.03
216.946	23444.85
217.02	23491.67
217.093	23542.16
217.167	23574.81
217.24	23608.32
217.314	23644.78
217.387	23682.97
217.461	23718.37
217.535	23783.28
217.608	23815.35
217.682	23869.66
217.755	23933.32
217.829	23968.82
217.902	24013.73
217.976	24053.67
218.049	24088.87
218.123	24109.28
218.196	24166
218.27	24194.17
218.343	24206.81
218.417	24241.25
218.49	24274.49
218.563	24332.03
218.637	24376.27
218.71	24424.27
218.784	24469.04
218.857	24527.07
218.931	24569.52
219.004	24609.22
219.077	24645.31
219.151	24682.45
219.224	24703.97
219.298	24736.1
219.371	24769.83
219.444	24788.16
219.518	24816.24
219.591	24849.67
219.665	24914.09
219.738	24942.75
219.811	24952.93
219.885	25003.6
219.958	25039.83
220.031	25070.76
220.105	25098.46
220.178	25117.76
220.251	25130.79
220.325	25160.52
220.398	25181.46
220.471	25206.07
220.544	25227.25
220.618	25247.42
220.691	25284.24
220.764	25304.94
220.838	25329.21
220.911	25347.7
220.984	25395.91
221.057	25422.74
221.131	25446.15
221.204	25421.63
221.277	25448.75
221.35	25512.32
221.424	25516.37
221.497	25528.58
221.57	25534.9
221.643	25556.23
221.716	25580.03
221.79	25599.04
221.863	25604.45
221.936	25619.02
222.009	25638.62
222.082	25666.37
222.155	25668.64
222.229	25696.25
222.302	25702.48
222.375	25708.85
222.448	25727.62
222.521	25727.81
222.594	25733.56
222.667	25724.1
222.74	25744.37
222.814	25737.61
222.887	25713.77
222.96	25732.4
223.033	25748.57
223.106	25759.43
223.179	25758.17
223.252	25759.81
223.325	25751.9
223.398	25759.14
223.471	25762.23
223.544	25755.56
223.617	25741.95
223.69	25746.35
223.763	25721.49
223.837	25729.35
223.91	25729.26
223.983	25705.85
224.056	25675.63
224.129	25669.94
224.202	25680.99
224.275	25659.66
224.348	25644.6
224.42	25626.16
224.493	25580.7
224.566	25562.79
224.639	25553.67
224.712	25536.15
224.785	25516.36
224.858	25504.78
224.931	25481.04
225.004	25444.02
225.077	25419.46
225.15	25374.97
225.223	25355.86
225.296	25355.91
225.369	25318.26
225.442	25286.89
225.514	25278.98
225.587	25264.79
225.66	25244.04
225.733	25227.1
225.806	25213.01
225.879	25186.57
225.952	25160.8
226.025	25173.16
226.097	25169.15
226.17	25156.17
226.243	25123.12
226.316	25099.66
226.389	25091.6
226.461	25075.05
226.534	25070.32
226.607	25060.43
226.68	25074.67
226.753	25052.52
226.825	25014.88
226.898	25019.32
226.971	24988.05
227.044	24964.99
227.117	24949.89
227.189	24938.5
227.262	24920.99
227.335	24902.94
227.407	24876.65
227.48	24862.51
227.553	24840.51
227.626	24803.89
227.698	24768.67
227.771	24747.87
227.844	24713.81
227.916	24675.8
227.989	24641.11
228.062	24609.51
228.134	24611.3
228.207	24577.14
228.28	24551.43
228.352	24513.27
228.425	24479.06
228.498	24479.16
228.57	24446.16
228.643	24431.21
228.716	24401.3
228.788	24371.82
228.861	24343.02
228.934	24342.45
229.006	24317.36
229.079	24282.29
229.151	24257.83
229.224	24218.52
229.296	24199.13
229.369	24207.87
229.442	24210.71
229.514	24176.85
229.587	24168.12
229.659	24113.04
229.732	24090.08
229.804	24072.43
229.877	24086.12
229.949	24066.3
230.022	24052.99
230.094	24032.83
230.167	24014.16
230.239	23974.37
230.312	23940.37
230.384	23935.16
230.457	23905.4
230.529	23883.12
230.602	23865.13
230.674	23835.95
230.747	23825.15
230.819	23809.62
230.892	23741.13
230.964	23713.93
231.037	23706.94
231.109	23673.71
231.181	23657.07
231.254	23629.05
231.326	23596.79
231.399	23563.56
231.471	23537.13
231.544	23487.12
231.616	23458.86
231.688	23427.28
231.761	23389.18
231.833	23361.31
231.905	23309.57
231.978	23280.73
232.05	23243.12
232.122	23203.39
232.195	23166.02
232.267	23155.27
232.339	23116.59
232.412	23116.11
232.484	23056.37
232.556	23002.03
232.629	22985.98
232.701	22955.74
232.773	22923.68
232.846	22878.17
232.918	22839.4
232.99	22803.91
233.062	22776.38
233.135	22750.4
233.207	22697.17
233.279	22684.15
233.351	22654.79
233.424	22627.41
233.496	22586.09
233.568	22566.66
233.64	22531.23
233.713	22498.88
233.785	22455.53
233.857	22421.69
233.929	22360.76
234.001	22358.39
234.074	22343.06
234.146	22290.52
234.218	22262.27
234.29	22228.33
234.362	22190.1
234.434	22135.29
234.507	22087.28
234.579	22039.32
234.651	21998.39
234.723	21983.74
234.795	21953.75
234.867	21910.85
234.939	21882.41
235.012	21848.38
235.084	21826.64
235.156	21795.6
235.228	21756.26
235.3	21721.61
235.372	21699.48
235.444	21676.39
235.516	21613.44
235.588	21582.21
235.66	21540.08
235.732	21479.01
235.804	21498.68
235.876	21482.29
235.948	21469.18
236.02	21435.44
236.092	21400.84
236.164	21366.96
236.236	21320.49
236.308	21265.79
236.38	21231.28
236.452	21180.86
236.524	21145.1
236.596	21116.71
236.668	21084.42
236.74	21034.78
236.812	20994.39
236.884	20955.69
236.956	20923.69
237.028	20884.99
237.1	20838.48
237.172	20821.85
237.244	20809.32
237.316	20724.83
237.388	20677.41
237.46	20626.66
237.532	20599.81
237.604	20543.53
237.675	20521.4
237.747	20489.5
237.819	20450.37
237.891	20414.18
237.963	20369.5
238.035	20317.98
238.107	20239.48
238.178	20211.82
238.25	20183.24
238.322	20165.45
238.394	20100.97
238.466	20055.39
238.538	20022.33
238.609	19993.75
238.681	19935.24
238.753	19886.04
238.825	19858.48
238.897	19822.33
238.968	19806.38
239.04	19764.89
239.112	19770.24
239.184	19714.67
239.255	19674.19
239.327	19645.33
239.399	19608.65
239.471	19589.96
239.542	19563.07
239.614	19542.44
239.686	19476.9
239.758	19448.47
239.829	19393
239.901	19380.14
239.973	19343.42
240.044	19308.82
240.116	19269.2
240.188	19227.86
240.259	19190.51
240.331	19146.37
240.403	19116.59
240.474	19056.78
240.546	19006.33
240.618	18930.81
240.689	18891.97
240.761	18854.92
240.833	18827.11
240.904	18785.52
240.976	18735.07
241.048	18700.95
241.119	18672.32
241.191	18648.47
241.262	18620.76
241.334	18593.49
241.405	18547.42
241.477	18500
241.549	18462.94
241.62	18421.59
241.692	18397.5
241.763	18378.41
241.835	18325.5
241.906	18276.64
241.978	18221.89
242.049	18203.1
242.121	18191.24
242.192	18158.86
242.264	18105.94
242.335	18039.97
242.407	18020.26
242.478	17975.63
242.55	17938.72
242.621	17892.41
242.693	17846.1
242.764	17807.06
242.836	17750
242.907	17721.23
242.979	17696.17
243.05	17658.54
243.122	17627.55
243.193	17586.01
243.264	17519.5
243.336	17486.3
243.407	17470.01
243.479	17452.9
243.55	17411.84
243.622	17372.66
243.693	17338.92
243.764	17310.1
243.836	17270.58
243.907	17222.2
243.978	17194.15
244.05	17163.45
244.121	17111.3
244.192	17084.51
244.264	17030.14
244.335	17001.95
244.407	16941.61
244.478	16914.77
244.549	16881.27
244.62	16829.61
244.692	16789.75
244.763	16761.12
244.834	16724.11
244.906	16678.95
244.977	16646.71
245.048	16627.04
245.119	16579.52
245.191	16539.9
245.262	16483.85
245.333	16474.93
245.405	16435.32
245.476	16400.9
245.547	16369.43
245.618	16346.34
245.689	16315.21
245.761	16292.6
245.832	16259.83
245.903	16246.43
245.974	16212.21
246.045	16168.3
246.117	16148.25
246.188	16110.7
246.259	16064.87
246.33	16033.2
246.401	15998.11
246.473	15946.2
246.544	15898.1
246.615	15878.77
246.686	15834.81
246.757	15830.96
246.828	15782.47
246.899	15767.67
246.97	15719.66
247.042	15677.54
247.113	15652.09
247.184	15636.18
247.255	15594.82
247.326	15560.17
247.397	15520.98
247.468	15488.01
247.539	15462.71
247.61	15424.39
247.681	15405.59
247.752	15395.66
247.823	15355.55
247.894	15327.74
247.965	15292.75
248.037	15263.44
248.108	15208.83
248.179	15179.13
248.25	15140.81
248.321	15122.69
248.392	15074.53
248.463	15071.16
248.534	15034.28
248.605	15007.72
248.675	14970.27
248.746	14947.76
248.817	14926.17
248.888	14905.68
248.959	14856.03
249.03	14831.45
249.101	14804.74
249.172	14767.86
249.243	14707.99
249.314	14694.11
249.385	14661.96
249.456	14643.59
249.527	14615.44
249.598	14604.31
249.669	14574.61
249.739	14547.86
249.81	14521.92
249.881	14486.73
249.952	14454.29
250.023	14430
250.094	14384.78
250.165	14351.76
250.235	14317
250.306	14286.88
250.377	14243.25
250.448	14224.55
250.519	14178.08
250.59	14171.23
250.66	14144.38
250.731	14143.13
250.802	14108.08
250.873	14085.86
250.944	14056.69
251.014	14020.1
251.085	14015.33
251.156	13990.46
251.227	13980.09
251.297	13969.34
251.368	13958.54
251.439	13951.12
251.51	13940.18
251.58	13912.65
251.651	13880.31
251.722	13869.12
251.792	13825.88
251.863	13800.09
251.934	13792.86
252.005	13793.58
252.075	13757.96
252.146	13746
252.217	13735.49
252.287	13724.98
252.358	13701.07
252.429	13702.04
252.499	13672.01
252.57	13645.54
252.641	13635.8
252.711	13608.47
252.782	13564.94
252.852	13555.64
252.923	13523.48
252.994	13497.59
253.064	13484.14
253.135	13453.77
253.205	13423.89
253.276	13427.02
253.347	13421.14
253.417	13385.47
253.488	13359.29
253.558	13335.28
253.629	13303.56
253.699	13281.97
253.77	13263.5
253.841	13239.01
253.911	13214.77
253.982	13195.24
254.052	13185.55
254.123	13166.17
254.193	13141.78
254.264	13158.56
254.334	13136.58
254.405	13102.06
254.475	13070.53
254.546	13049.52
254.616	13043.68
254.687	13031.63
254.757	13010.61
254.827	12988.1
254.898	12974.55
254.968	12950.21
255.039	12917.72
255.109	12907.02
255.18	12872.99
255.25	12828.54
255.321	12813.16
255.391	12780.72
255.461	12788.87
255.532	12741.72
255.602	12715.79
255.673	12672.74
255.743	12643.43
255.813	12590.6
255.884	12586.07
255.954	12572.18
256.024	12568.47
256.095	12550.06
256.165	12509.13
256.235	12491.68
256.306	12463.1
256.376	12443.57
256.446	12431.57
256.517	12419.67
256.587	12409.83
256.657	12395.71
256.728	12381.59
256.798	12367.32
256.868	12346.88
256.938	12314.2
257.009	12302.67
257.079	12293.03
257.149	12311.06
257.219	12269.46
257.29	12253.17
257.36	12210.7
257.43	12202.08
257.5	12160.04
257.571	12129.44
257.641	12118.64
257.711	12086.34
257.781	12076.51
257.852	12060.26
257.922	12019.82
257.992	11998.13
258.062	11973.07
258.132	11958.32
258.202	11940.82
258.273	11916.38
258.343	11909.35
258.413	11885.54
258.483	11869.63
258.553	11833.67
258.623	11796.7
258.693	11780.41
258.764	11785.08
258.834	11784.46
258.904	11762.82
258.974	11735.15
259.044	11720.4
259.114	11712.64
259.184	11701.7
259.254	11682.95
259.324	11644.64
259.394	11631.86
259.464	11635.67
259.535	11614.8
259.605	11594.7
259.675	11570.65
259.745	11561.16
259.815	11533.4
259.885	11501.35
259.955	11510.99
260.025	11493.59
260.095	11477.92
260.165	11469.39
260.235	11459.18
260.305	11431.22
260.375	11403.85
260.445	11412.96
260.515	11416.09
260.585	11409.58
260.655	11386.83
260.725	11372.62
260.795	11369.39
260.865	11378.3
260.934	11351.75
261.004	11345.82
261.074	11328.03
261.144	11325.09
261.214	11314.97
261.284	11298.2
261.354	11300.37
261.424	11265.52
261.494	11267.98
261.564	11252.85
261.634	11240.51
261.703	11205.47
261.773	11196.51
261.843	11188.61
261.913	11167.5
