Data from 20250703_urea_0.1M_MAYP1162681_15-11-05-568.txt Node
Date: Thu Jul 03 15:11:05 BST 2025
User: adleo
Spectrometer: MAYP116268
Trigger mode: 0
Integration Time (sec): 1.000000E0
Scans to average: 1
Electric dark correction enabled: true
Nonlinearity correction enabled: true
Boxcar width: 10
XAxis mode: Wavelengths
Number of Pixels in Spectrum: 2068
>>>>>Begin Spectral Data<<<<<
179.565	1277.25
179.642	1335.23
179.718	1376.46
179.795	1416.58
179.871	1453.68
179.948	1472.29
180.024	1494.93
180.101	1520.16
180.177	1536.01
180.254	1562.51
180.33	1585.91
180.407	1643.89
180.483	1743.51
180.56	1837.3
180.636	1927.85
180.712	1913.1
180.789	1921.71
180.865	1932.55
180.942	1938.44
181.018	1949.47
181.095	1966.55
181.171	1971.16
181.248	1975.44
181.324	1994.08
181.4	2003.93
181.477	2012.54
181.553	2027.61
181.63	2048.91
181.706	2065.52
181.782	2073.41
181.859	2069.27
181.935	2074.6
182.011	2071.41
182.088	2090.77
182.164	2112.56
182.24	2124.74
182.317	2134.82
182.393	2133.63
182.469	2151.99
182.546	2167.5
182.622	2173.59
182.698	2167.35
182.775	2179.63
182.851	2191.57
182.927	2183.05
183.003	2178.16
183.08	2173.16
183.156	2183.72
183.232	2176.68
183.308	2163.22
183.385	2172.44
183.461	2190.19
183.537	2192.38
183.613	2205.89
183.69	2193.61
183.766	2182.81
183.842	2190.04
183.918	2197.56
183.995	2212.17
184.071	2215.07
184.147	2206.79
184.223	2194.81
184.299	2207.7
184.375	2197.43
184.452	2206.14
184.528	2255.24
184.604	2266.14
184.68	2277.41
184.756	2283.74
184.832	2292.97
184.908	2299.54
184.985	2299.01
185.061	2285.22
185.137	2294.21
185.213	2282.84
185.289	2284.36
185.365	2276.37
185.441	2277.47
185.517	2292.56
185.593	2286.89
185.669	2284.23
185.745	2297.79
185.822	2314.72
185.898	2303.16
185.974	2310.91
186.05	2301.58
186.126	2272.47
186.202	2268.94
186.278	2266.9
186.354	2257.38
186.43	2265.76
186.506	2265.95
186.582	2265.43
186.658	2270.85
186.734	2248.54
186.81	2250.91
186.886	2253.86
186.962	2269.76
187.038	2265.33
187.114	2253.95
187.19	2262.52
187.266	2252.05
187.341	2250.62
187.417	2245.06
187.493	2248.81
187.569	2249
187.645	2241.25
187.721	2224.83
187.797	2227.11
187.873	2231.78
187.949	2224.59
188.025	2214.6
188.101	2215.83
188.176	2220.92
188.252	2216.64
188.328	2227.15
188.404	2227.53
188.48	2222.87
188.556	2213.64
188.632	2211.83
188.707	2213.73
188.783	2213.26
188.859	2206.46
188.935	2195.66
189.011	2202.51
189.086	2196.37
189.162	2190.76
189.238	2188.14
189.314	2188.09
189.39	2181
189.465	2171.68
189.541	2190.47
189.617	2174.82
189.693	2170.26
189.768	2174.83
189.844	2201.96
189.92	2191.21
189.996	2200.3
190.071	2212.43
190.147	2211.38
190.223	2222
190.298	2211.91
190.374	2195.82
190.45	2208.67
190.526	2220.42
190.601	2215
190.677	2215.14
190.753	2241.56
190.828	2248.84
190.904	2263.31
190.98	2284.01
191.055	2296.43
191.131	2285.48
191.207	2305.8
191.282	2312.56
191.358	2302.42
191.433	2286.18
191.509	2300.59
191.585	2296.36
191.66	2295.45
191.736	2303.16
191.811	2292.03
191.887	2312.5
191.963	2337.82
192.038	2343.77
192.114	2338.43
192.189	2343.38
192.265	2340.67
192.34	2319.15
192.416	2314.87
192.491	2309.11
192.567	2307.49
192.642	2307.82
192.718	2307.73
192.793	2295.74
192.869	2293.59
192.944	2294.78
193.02	2302.64
193.095	2307.4
193.171	2313.11
193.246	2318.63
193.322	2314.58
193.397	2319.53
193.473	2304.63
193.548	2284.97
193.624	2291.49
193.699	2292.83
193.775	2308.3
193.85	2311.15
193.925	2318.72
194.001	2318.15
194.076	2314.39
194.152	2303.3
194.227	2297.68
194.302	2288.6
194.378	2294.73
194.453	2292.4
194.529	2305.92
194.604	2290.79
194.679	2283.89
194.755	2265.05
194.83	2274.86
194.905	2272.67
194.981	2278.28
195.056	2271.05
195.131	2278.57
195.207	2277.66
195.282	2269.1
195.357	2249.34
195.433	2262.86
195.508	2255.01
195.583	2264.19
195.659	2275.04
195.734	2286.75
195.809	2287.66
195.884	2297.69
195.96	2298.41
196.035	2314.07
196.11	2307.35
196.185	2317.82
196.261	2323.58
196.336	2358.9
196.411	2344.9
196.486	2348.42
196.561	2341.42
196.637	2349.51
196.712	2366.13
196.787	2368.32
196.862	2381.74
196.937	2392.88
197.013	2398.45
197.088	2408.4
197.163	2431.69
197.238	2453.75
197.313	2452.51
197.388	2466.65
197.464	2497.61
197.539	2510.17
197.614	2501.94
197.689	2516.99
197.764	2535.89
197.839	2553.13
197.914	2544.13
197.989	2565.37
198.065	2584.13
198.14	2638.12
198.215	2666.56
198.29	2679.67
198.365	2694.62
198.44	2706.15
198.515	2733.97
198.59	2750.22
198.665	2778.19
198.74	2786.91
198.815	2782.62
198.89	2806.02
198.965	2836.52
199.04	2831.52
199.115	2847.15
199.19	2892.37
199.265	2896.23
199.34	2907.76
199.415	2943.43
199.49	2967.88
199.565	2977.98
199.64	3003.15
199.715	3001.1
199.79	3010.54
199.865	3015.4
199.94	3013.93
200.015	3051.31
200.09	3057.61
200.165	3066.43
200.24	3074.58
200.315	3116.25
200.39	3135.28
200.464	3142.05
200.539	3142.52
200.614	3162.55
200.689	3188.12
200.764	3196.8
200.839	3217.01
200.914	3222.88
200.989	3212.62
201.063	3225.21
201.138	3212.25
201.213	3210.48
201.288	3191.17
201.363	3192.03
201.438	3193.22
201.512	3211.19
201.587	3191.16
201.662	3199.46
201.737	3210.52
201.812	3220.4
201.886	3185.07
201.961	3197.29
202.036	3186.8
202.111	3184.89
202.186	3155.86
202.26	3140.83
202.335	3120.23
202.41	3115.89
202.485	3101.06
202.559	3087.09
202.634	3061.91
202.709	3072.16
202.784	3056.42
202.858	3059.66
202.933	3049.32
203.008	3047.74
203.082	3032.87
203.157	3039.69
203.232	3000.79
203.306	2989.44
203.381	2964.59
203.456	2950.19
203.53	2937.73
203.605	2927.3
203.68	2921.05
203.754	2927.72
203.829	2924.28
203.904	2919.28
203.978	2929.15
204.053	2953.38
204.127	2961.82
204.202	2987.47
204.277	2995.15
204.351	3017.7
204.426	3038.5
204.5	3062.73
204.575	3060.64
204.65	3105.83
204.724	3136.23
204.799	3185.63
204.873	3223.1
204.948	3266.62
205.022	3301.63
205.097	3342.61
205.171	3410.43
205.246	3474.72
205.32	3535.38
205.395	3599.14
205.469	3656.61
205.544	3726.91
205.618	3780.09
205.693	3866.07
205.767	3929.15
205.842	4037.3
205.916	4112.74
205.991	4192.55
206.065	4288.03
206.14	4400.81
206.214	4492.48
206.289	4585.73
206.363	4705.31
206.438	4820.97
206.512	4940.56
206.586	5077.51
206.661	5206.06
206.735	5308.24
206.81	5432.87
206.884	5579.55
206.958	5699.27
207.033	5854.52
207.107	6002.96
207.181	6176.87
207.256	6313.95
207.33	6476.74
207.405	6635.71
207.479	6808.1
207.553	6967.88
207.628	7109.34
207.702	7275.81
207.776	7423.44
207.851	7594.81
207.925	7767.25
207.999	7926.91
208.073	8089.04
208.148	8264.28
208.222	8418.15
208.296	8622.51
208.371	8814.19
208.445	8992.09
208.519	9196.22
208.593	9383.6
208.668	9551.28
208.742	9730.55
208.816	9912.48
208.89	10108.18
208.965	10286
209.039	10479.33
209.113	10680.76
209.187	10875.14
209.261	11050.95
209.336	11268.31
209.41	11466.86
209.484	11643.34
209.558	11842.29
209.632	12034.05
209.707	12228.1
209.781	12432.41
209.855	12622.71
209.929	12822.75
210.003	13013.54
210.077	13192.71
210.151	13417.77
210.226	13629.63
210.3	13826.73
210.374	14022.68
210.448	14206.1
210.522	14386.82
210.596	14571.58
210.67	14749.69
210.744	14970.17
210.818	15167.85
210.892	15356.27
210.966	15513.7
211.041	15703.9
211.115	15866.34
211.189	16055.91
211.263	16230.82
211.337	16402.6
211.411	16579
211.485	16719.25
211.559	16882.06
211.633	17041.39
211.707	17168.58
211.781	17331.37
211.855	17455.47
211.929	17593.64
212.003	17717.31
212.077	17877.98
212.151	18033.69
212.225	18190.51
212.299	18328.33
212.373	18464.76
212.447	18591.12
212.52	18764.8
212.594	18907.54
212.668	19057.32
212.742	19183
212.816	19311.95
212.89	19431.9
212.964	19556.28
213.038	19691.99
213.112	19839.41
213.186	19991.79
213.26	20096.51
213.333	20176.51
213.407	20301.33
213.481	20430.43
213.555	20570.58
213.629	20676.75
213.703	20775.6
213.777	20893.54
213.85	20987.04
213.924	21134.33
213.998	21251.26
214.072	21353.11
214.146	21446.71
214.219	21554.49
214.293	21655.61
214.367	21750.42
214.441	21863.31
214.515	21958.8
214.588	22033.47
214.662	22097.63
214.736	22157.64
214.81	22254.1
214.883	22347.62
214.957	22427.69
215.031	22501.63
215.105	22554.56
215.178	22618.63
215.252	22689.6
215.326	22744.85
215.4	22806.81
215.473	22835.74
215.547	22895.19
215.621	22960.72
215.694	23038.93
215.768	23080.01
215.842	23134.55
215.915	23199.16
215.989	23248.49
216.063	23299.08
216.136	23364.8
216.21	23425.13
216.284	23503.11
216.357	23576.56
216.431	23638.82
216.504	23694.9
216.578	23783.35
216.652	23852.12
216.725	23906.18
216.799	23970.62
216.873	24030.48
216.946	24089.27
217.02	24140.63
217.093	24179.95
217.167	24201.46
217.24	24230.88
217.314	24275.93
217.387	24314.08
217.461	24351.37
217.535	24397.49
217.608	24438.35
217.682	24485.72
217.755	24535.51
217.829	24555.72
217.902	24585.92
217.976	24616.7
218.049	24657.32
218.123	24673.48
218.196	24719.94
218.27	24749.22
218.343	24767.7
218.417	24789.17
218.49	24825.02
218.563	24878.97
218.637	24923.07
218.71	24984.11
218.784	25023
218.857	25062.56
218.931	25110.86
219.004	25150.33
219.077	25184.84
219.151	25211.28
219.224	25229.33
219.298	25252.39
219.371	25303.16
219.444	25316.53
219.518	25354.99
219.591	25383.07
219.665	25438.29
219.738	25465.17
219.811	25493.16
219.885	25534.61
219.958	25573.13
220.031	25593.15
220.105	25611.25
220.178	25623.42
220.251	25630.22
220.325	25655.71
220.398	25696.44
220.471	25723.33
220.544	25748.77
220.618	25765.9
220.691	25796.84
220.764	25823.63
220.838	25852.3
220.911	25853.89
220.984	25891.25
221.057	25914.18
221.131	25930.83
221.204	25914.03
221.277	25952.17
221.35	25993.2
221.424	25993.3
221.497	26002.27
221.57	26006.76
221.643	26026.41
221.716	26053.4
221.79	26063.15
221.863	26077.58
221.936	26077.05
222.009	26081.78
222.082	26088.73
222.155	26088.93
222.229	26107.37
222.302	26111.18
222.375	26102.73
222.448	26117.31
222.521	26110.7
222.594	26105.2
222.667	26102.88
222.74	26111.81
222.814	26101.86
222.887	26094.33
222.96	26103.26
223.033	26112.44
223.106	26116.1
223.179	26117.46
223.252	26110.26
223.325	26100.27
223.398	26100.08
223.471	26096.36
223.544	26086.13
223.617	26078.21
223.69	26080.04
223.763	26054.7
223.837	26057.35
223.91	26065.56
223.983	26044.27
224.056	26030.61
224.129	26025.88
224.202	26024.14
224.275	26015.31
224.348	25987.12
224.42	25960.13
224.493	25927.12
224.566	25906.31
224.639	25904.82
224.712	25882.22
224.785	25864.07
224.858	25851.67
224.931	25821.5
225.004	25796.11
225.077	25773.04
225.15	25723.04
225.223	25702.72
225.296	25708.27
225.369	25676.46
225.442	25647.26
225.514	25629.55
225.587	25614.78
225.66	25606.23
225.733	25586.64
225.806	25565.5
225.879	25548.7
225.952	25525.54
226.025	25527.61
226.097	25525.05
226.17	25493.78
226.243	25449.38
226.316	25425.98
226.389	25411.79
226.461	25394.99
226.534	25375.21
226.607	25352.62
226.68	25375.16
226.753	25349.49
226.825	25303.49
226.898	25286.02
226.971	25251.23
227.044	25227.2
227.117	25213.79
227.189	25186.38
227.262	25166.83
227.335	25149.17
227.407	25116.31
227.48	25093.01
227.553	25074.19
227.626	25038.43
227.698	25009.72
227.771	24993.17
227.844	24952.88
227.916	24928.03
227.989	24889.82
228.062	24855.81
228.134	24851.37
228.207	24813.49
228.28	24783.29
228.352	24757.96
228.425	24737.79
228.498	24731.42
228.57	24707.78
228.643	24684.58
228.716	24651.48
228.788	24614.43
228.861	24583.12
228.934	24580.51
229.006	24549.45
229.079	24515.48
229.151	24479.88
229.224	24443.8
229.296	24416.4
229.369	24426.92
229.442	24401.35
229.514	24369.51
229.587	24357.36
229.659	24312.45
229.732	24282.83
229.804	24271.15
229.877	24264.74
229.949	24249.11
230.022	24238.35
230.094	24210.04
230.167	24180.56
230.239	24145.74
230.312	24124.13
230.384	24110.29
230.457	24080.62
230.529	24062.2
230.602	24037.55
230.674	24024.04
230.747	24013.39
230.819	24009.29
230.892	23935.69
230.964	23914.61
231.037	23885.1
231.109	23852.78
231.181	23835.76
231.254	23789.95
231.326	23742.01
231.399	23709.69
231.471	23665.95
231.544	23604.07
231.616	23570.41
231.688	23540.32
231.761	23499.04
231.833	23466.93
231.905	23413.11
231.978	23372.12
232.05	23332.53
232.122	23295.69
232.195	23235.75
232.267	23210.04
232.339	23164.81
232.412	23167.7
232.484	23120.35
232.556	23086.46
232.629	23068.13
232.701	23039.59
232.773	23016.78
232.846	22991.52
232.918	22961.14
232.99	22933.75
233.062	22909.21
233.135	22886.93
233.207	22831.39
233.279	22809.7
233.351	22780.48
233.424	22740.71
233.496	22696.35
233.568	22681.26
233.64	22637.53
233.713	22617.28
233.785	22592.6
233.857	22563.43
233.929	22504.23
234.001	22483.5
234.074	22464.31
234.146	22411.81
234.218	22371.31
234.29	22332.75
234.362	22286.04
234.434	22223.37
234.507	22165.18
234.579	22114.81
234.651	22067.13
234.723	22048.52
234.795	22016.47
234.867	21974.96
234.939	21958.62
235.012	21934.28
235.084	21897.45
235.156	21869.83
235.228	21823.32
235.3	21772.27
235.372	21732.26
235.444	21712.25
235.516	21653.59
235.588	21611.61
235.66	21572.09
235.732	21526.44
235.804	21548.03
235.876	21529.14
235.948	21510.29
236.02	21473.86
236.092	21434.77
236.164	21382.62
236.236	21329.94
236.308	21282.42
236.38	21248.15
236.452	21194.84
236.524	21150.45
236.596	21133.1
236.668	21103.07
236.74	21067.36
236.812	21029.24
236.884	20995.4
236.956	20950.44
237.028	20912.07
237.1	20866.96
237.172	20848.46
237.244	20828.79
237.316	20759.43
237.388	20708.64
237.46	20659.28
237.532	20636.78
237.604	20596.06
237.675	20585.84
237.747	20569.12
237.819	20518.23
237.891	20471.53
237.963	20436.49
238.035	20395.86
238.107	20310.71
238.178	20279.43
238.25	20235.82
238.322	20219.91
238.394	20167.05
238.466	20122.66
238.538	20086.61
238.609	20065.94
238.681	20001.85
238.753	19950.14
238.825	19902.62
238.897	19867.58
238.968	19845.37
239.04	19802.77
239.112	19789.47
239.184	19743.83
239.255	19691.3
239.327	19662.34
239.399	19627.98
239.471	19589.57
239.542	19548.71
239.614	19531.36
239.686	19468.52
239.758	19447.27
239.829	19393.49
239.901	19360.52
239.973	19327.8
240.044	19300.82
240.116	19251.71
240.188	19208.24
240.259	19165.16
240.331	19112.92
240.403	19073.31
240.474	19020.4
240.546	18972.02
240.618	18915.88
240.689	18870.34
240.761	18842.39
240.833	18827.98
240.904	18785.28
240.976	18749.43
241.048	18721.82
241.119	18692.56
241.191	18654.06
241.262	18621.2
241.334	18575.95
241.405	18536.81
241.477	18495.81
241.549	18451.95
241.62	18420.58
241.692	18395.04
241.763	18373.31
241.835	18337.36
241.906	18304.25
241.978	18254.32
242.049	18223.05
242.121	18197.65
242.192	18177.17
242.264	18121.51
242.335	18049.56
242.407	18024.4
242.478	17976.21
242.55	17933.61
242.621	17885.13
242.693	17850.77
242.764	17808.03
242.836	17767.69
242.907	17737.38
242.979	17693.33
243.05	17661.47
243.122	17625.28
243.193	17591.74
243.264	17528.9
243.336	17497
243.407	17467.65
243.479	17453.67
243.55	17427.26
243.622	17391.6
243.693	17352.8
243.764	17328.76
243.836	17292.8
243.907	17243.36
243.978	17203.88
244.05	17176.03
244.121	17123.3
244.192	17091.78
244.264	17042.92
244.335	17012.46
244.407	16957.71
244.478	16934.48
244.549	16894.43
244.62	16842.18
244.692	16803.34
244.763	16777.7
244.834	16729.84
244.906	16685.6
244.977	16653.89
245.048	16627.67
245.119	16582.8
245.191	16533.3
245.262	16481.92
245.333	16468.14
245.405	16432.33
245.476	16410.88
245.547	16376.13
245.618	16351.93
245.689	16317.72
245.761	16285.04
245.832	16246.29
245.903	16221.9
245.974	16187.82
246.045	16144.93
246.117	16131.38
246.188	16078.22
246.259	16031.27
246.33	15994.83
246.401	15955.89
246.473	15901.81
246.544	15859.59
246.615	15838.57
246.686	15803.58
246.757	15786.32
246.828	15735.67
246.899	15726.75
246.97	15670.31
247.042	15628.81
247.113	15599.98
247.184	15586.1
247.255	15551.83
247.326	15519.97
247.397	15485.6
247.468	15456.92
247.539	15427.81
247.61	15382.07
247.681	15373.73
247.752	15367.56
247.823	15337.53
247.894	15320.22
247.965	15279.49
248.037	15241.46
248.108	15192.58
248.179	15157.3
248.25	15118.01
248.321	15100.51
248.392	15056.41
248.463	15055.2
248.534	15026.14
248.605	15014.47
248.675	14976.39
248.746	14958.22
248.817	14938.65
248.888	14915.85
248.959	14866.87
249.03	14845.13
249.101	14818
249.172	14777.31
249.243	14714.12
249.314	14703.32
249.385	14661.52
249.456	14642.19
249.527	14614.28
249.598	14595.58
249.669	14565.6
249.739	14542.46
249.81	14517.58
249.881	14479.5
249.952	14445.37
250.023	14411.24
250.094	14358.12
250.165	14318.02
250.235	14285.09
250.306	14255.98
250.377	14210.52
250.448	14183.81
250.519	14139.08
250.59	14129.39
250.66	14102.01
250.731	14096.85
250.802	14071.88
250.873	14053.03
250.944	14028.3
251.014	13997.93
251.085	13998.7
251.156	13985.2
251.227	13976.77
251.297	13962.11
251.368	13941.72
251.439	13929.04
251.51	13921.67
251.58	13882.67
251.651	13861.46
251.722	13847.86
251.792	13804.38
251.863	13781.68
251.934	13777.72
252.005	13776.76
252.075	13750.78
252.146	13737.33
252.217	13725.51
252.287	13698.76
252.358	13669.31
252.429	13673.11
252.499	13639.95
252.57	13609.48
252.641	13593.38
252.711	13563.64
252.782	13523.58
252.852	13526.57
252.923	13497.5
252.994	13475.85
253.064	13468.33
253.135	13436.95
253.205	13400.99
253.276	13392.7
253.347	13388.02
253.417	13358.28
253.488	13331.38
253.558	13298.45
253.629	13274.78
253.699	13245.23
253.77	13232.12
253.841	13211.1
253.911	13185.46
253.982	13169.45
254.052	13152.05
254.123	13135.18
254.193	13111.51
254.264	13129.2
254.334	13089.96
254.405	13052.99
254.475	13017.6
254.546	13000.49
254.616	12993.45
254.687	12975.76
254.757	12964.05
254.827	12938.79
254.898	12918.88
254.968	12896.36
255.039	12866.09
255.109	12856.93
255.18	12832.11
255.25	12784.05
255.321	12772.72
255.391	12737.96
255.461	12745.1
255.532	12702.53
255.602	12676.11
255.673	12639.38
255.743	12605.35
255.813	12560.57
255.884	12557.67
255.954	12545.91
256.024	12545.33
256.095	12520.56
256.165	12485.9
256.235	12467.97
256.306	12440.88
256.376	12431.38
256.446	12419.86
256.517	12414.8
256.587	12398.21
256.657	12381.92
256.728	12367.22
256.798	12341.77
256.868	12314.68
256.938	12277.71
257.009	12262.33
257.079	12251.68
257.149	12259.63
257.219	12217.93
257.29	12207.72
257.36	12169.78
257.43	12158.45
257.5	12112.56
257.571	12095.16
257.641	12096.51
257.711	12068.8
257.781	12057.81
257.852	12044.31
257.922	12003.43
257.992	11976.97
258.062	11955.38
258.132	11949.74
258.202	11934.7
258.273	11917.64
258.343	11916.58
258.413	11886.84
258.483	11873.1
258.553	11840.9
258.623	11804.85
258.693	11792.51
258.764	11792.12
258.834	11783.35
258.904	11764.41
258.974	11737.56
259.044	11710.52
259.114	11687.24
259.184	11668.06
259.254	11651.77
259.324	11611.09
259.394	11601.31
259.464	11605.16
259.535	11581.59
259.605	11548.09
259.675	11518.5
259.745	11510.89
259.815	11482.4
259.885	11462.59
259.955	11465.73
260.025	11432.19
260.095	11419.46
260.165	11407.6
260.235	11402.79
260.305	11382.69
260.375	11348.37
260.445	11353.05
260.515	11356.13
260.585	11353.39
260.655	11336.47
260.725	11328.9
260.795	11321.53
260.865	11331.02
260.934	11301.53
261.004	11296.18
261.074	11282.83
261.144	11279.84
261.214	11273.14
261.284	11254.49
261.354	11244.95
261.424	11217.43
261.494	11222.73
261.564	11203.64
261.634	11192.46
261.703	11154.44
261.773	11142.68
261.843	11134.73
