Data from 20250703_urea_0.1M_MAYP1162681_20-01-05-174.txt Node
Date: Thu Jul 03 20:01:05 BST 2025
User: adleo
Spectrometer: MAYP116268
Trigger mode: 0
Integration Time (sec): 1.000000E0
Scans to average: 1
Electric dark correction enabled: true
Nonlinearity correction enabled: true
Boxcar width: 10
XAxis mode: Wavelengths
Number of Pixels in Spectrum: 2068
>>>>>Begin Spectral Data<<<<<
179.565	1381.25
179.642	1447.17
179.718	1499.41
179.795	1541.77
179.871	1580.07
179.948	1600.67
180.024	1625.13
180.101	1649.26
180.177	1665.48
180.254	1692.02
180.33	1719.03
180.407	1785.1
180.483	1892.38
180.56	1994.83
180.636	2091.46
180.712	2080.04
180.789	2093.12
180.865	2107
180.942	2115.94
181.018	2126.55
181.095	2140.12
181.171	2148.92
181.248	2146.78
181.324	2160.34
181.4	2166.71
181.477	2181.23
181.553	2196.07
181.63	2217.67
181.706	2237.04
181.782	2245.88
181.859	2246.74
181.935	2250.64
182.011	2247.22
182.088	2267.87
182.164	2290.44
182.24	2305.57
182.317	2313.47
182.393	2311.04
182.469	2326.12
182.546	2338.5
182.622	2344.3
182.698	2335.31
182.775	2348.16
182.851	2367.06
182.927	2360.34
183.003	2358.77
183.08	2349.4
183.156	2359.39
183.232	2358.16
183.308	2344.16
183.385	2353.01
183.461	2369.96
183.537	2370.48
183.613	2384.95
183.69	2378.15
183.766	2364.43
183.842	2372.48
183.918	2380.24
183.995	2392.37
184.071	2396.75
184.147	2393.8
184.223	2382.67
184.299	2398.52
184.375	2385.19
184.452	2391.67
184.528	2447.05
184.604	2459.14
184.68	2472.71
184.756	2480.75
184.832	2483.8
184.908	2490.8
184.985	2491.75
185.061	2474.95
185.137	2486.8
185.213	2477.23
185.289	2476.33
185.365	2470.14
185.441	2471.05
185.517	2483.53
185.593	2482.43
185.669	2477.72
185.745	2489.86
185.822	2505.8
185.898	2497.56
185.974	2506.89
186.05	2497.65
186.126	2460.17
186.202	2453.98
186.278	2448.46
186.354	2438.08
186.43	2442.99
186.506	2441.61
186.582	2440.99
186.658	2448.94
186.734	2424.85
186.81	2426.76
186.886	2429.18
186.962	2441.7
187.038	2433.99
187.114	2428.51
187.19	2433.37
187.266	2422.09
187.341	2423.37
187.417	2417.57
187.493	2419.61
187.569	2421.8
187.645	2415
187.721	2400.19
187.797	2405.38
187.873	2413.14
187.949	2409.9
188.025	2404.19
188.101	2407.42
188.176	2414.85
188.252	2408.85
188.328	2420.18
188.404	2418.32
188.48	2411.23
188.556	2404.8
188.632	2406.61
188.707	2405.7
188.783	2401.51
188.859	2397.47
188.935	2383.14
189.011	2390.42
189.086	2381.09
189.162	2373.14
189.238	2370.14
189.314	2369.33
189.39	2364.86
189.465	2354.2
189.541	2368.29
189.617	2353.3
189.693	2344.16
189.768	2343.73
189.844	2371.92
189.92	2360.65
189.996	2371.36
190.071	2383.31
190.147	2383.07
190.223	2392.64
190.298	2383.07
190.374	2371.31
190.45	2384.78
190.526	2396.59
190.601	2389.49
190.677	2393.06
190.753	2425.41
190.828	2430.12
190.904	2446.4
190.98	2462.59
191.055	2473.12
191.131	2464.83
191.207	2488.25
191.282	2502.2
191.358	2494.82
191.433	2479.19
191.509	2497.9
191.585	2495.75
191.66	2497.75
191.736	2505.28
191.811	2497.09
191.887	2514.56
191.963	2540.66
192.038	2550.56
192.114	2552.42
192.189	2557.9
192.265	2552.42
192.34	2526.93
192.416	2524.55
192.491	2519.98
192.567	2523.7
192.642	2526.75
192.718	2524.13
192.793	2510.6
192.869	2505.89
192.944	2505.94
193.02	2511.41
193.095	2513.51
193.171	2518.65
193.246	2517.08
193.322	2516.13
193.397	2515.41
193.473	2503.7
193.548	2483.31
193.624	2485.17
193.699	2479.36
193.775	2496.84
193.85	2499.32
193.925	2511.22
194.001	2514.22
194.076	2506.32
194.152	2496.93
194.227	2490.5
194.302	2481.22
194.378	2487.13
194.453	2484.27
194.529	2498.7
194.604	2484.37
194.679	2477.37
194.755	2457.57
194.83	2473.38
194.905	2470.19
194.981	2476.43
195.056	2466
195.131	2475.38
195.207	2474.81
195.282	2465.01
195.357	2442.86
195.433	2462.38
195.508	2447.47
195.583	2454.47
195.659	2468.33
195.734	2473.52
195.809	2475.52
195.884	2490.42
195.96	2491.9
196.035	2510.42
196.11	2506.51
196.185	2517.32
196.261	2522.65
196.336	2556.18
196.411	2537.74
196.486	2544.98
196.561	2540.41
196.637	2547.93
196.712	2564.51
196.787	2565.8
196.862	2585.8
196.937	2600.51
197.013	2605.75
197.088	2616.47
197.163	2639.53
197.238	2658.83
197.313	2658.79
197.388	2676.56
197.464	2706.87
197.539	2715.44
197.614	2705.39
197.689	2722.16
197.764	2745.85
197.839	2768.77
197.914	2762.05
197.989	2789.83
198.065	2803.31
198.14	2860.39
198.215	2891.22
198.29	2902.85
198.365	2920.73
198.44	2929.78
198.515	2957.39
198.59	2972.12
198.665	3002.67
198.74	3009.83
198.815	3013.64
198.89	3040.39
198.965	3071.06
199.04	3064.81
199.115	3084.26
199.19	3132.8
199.265	3133.94
199.34	3141.43
199.415	3175.89
199.49	3199.1
199.565	3208.64
199.64	3233.83
199.715	3229.24
199.79	3237.4
199.865	3244.55
199.94	3240.79
200.015	3277.91
200.09	3284.78
200.165	3292.27
200.24	3299.57
200.315	3349.05
200.39	3366.32
200.464	3371.09
200.539	3372.67
200.614	3393.85
200.689	3418.29
200.764	3428.31
200.839	3445.39
200.914	3453.5
200.989	3441.8
201.063	3456.64
201.138	3439.24
201.213	3441.81
201.288	3420.67
201.363	3428.88
201.438	3430.12
201.512	3450.16
201.587	3430.25
201.662	3435.22
201.737	3449.96
201.812	3457.32
201.886	3416.57
201.961	3426.31
202.036	3414.86
202.111	3407.8
202.186	3376.18
202.26	3359.42
202.335	3333.32
202.41	3331.5
202.485	3312.37
202.559	3294.1
202.634	3268.38
202.709	3283.31
202.784	3265.13
202.858	3269.52
202.933	3251.2
203.008	3247.38
203.082	3230.5
203.157	3233.64
203.232	3194.3
203.306	3178.88
203.381	3154.88
203.456	3138.24
203.53	3120.43
203.605	3109.03
203.68	3095.29
203.754	3100.06
203.829	3095.67
203.904	3086.32
203.978	3087.71
204.053	3108.89
204.127	3112.03
204.202	3128.73
204.277	3126.68
204.351	3139.51
204.426	3152.92
204.5	3170.05
204.575	3161.41
204.65	3198.98
204.724	3223.61
204.799	3262
204.873	3290.36
204.948	3323.58
205.022	3351.87
205.097	3387.36
205.171	3444.59
205.246	3502.2
205.32	3551.55
205.395	3599.31
205.469	3646.42
205.544	3710.36
205.618	3746.81
205.693	3820.2
205.767	3874.34
205.842	3962.62
205.916	4025.18
205.991	4089.34
206.065	4167.19
206.14	4260.1
206.214	4334.89
206.289	4407.92
206.363	4509.35
206.438	4596.18
206.512	4696.33
206.586	4812.8
206.661	4914.17
206.735	4992.45
206.81	5093.72
206.884	5210.69
206.958	5307.42
207.033	5435.64
207.107	5551.03
207.181	5701.7
207.256	5815.71
207.33	5952.93
207.405	6087.19
207.479	6235.42
207.553	6369.07
207.628	6474.54
207.702	6618.86
207.776	6744.82
207.851	6879.44
207.925	7030.47
207.999	7167.88
208.073	7299.31
208.148	7437.41
208.222	7565.24
208.296	7736.21
208.371	7894.27
208.445	8050.24
208.519	8226.61
208.593	8383.39
208.668	8529.39
208.742	8682.17
208.816	8827.54
208.89	8986.92
208.965	9135.66
209.039	9292.82
209.113	9463.94
209.187	9639.26
209.261	9780.59
209.336	9950.89
209.41	10123.27
209.484	10272.08
209.558	10441.75
209.632	10613.98
209.707	10779.09
209.781	10966.04
209.855	11142.6
209.929	11313.06
210.003	11471.51
210.077	11617.49
210.151	11817.32
210.226	11998.88
210.3	12180.35
210.374	12354.3
210.448	12508.3
210.522	12666.6
210.596	12823.5
210.67	12969.8
210.744	13166.32
210.818	13350.84
210.892	13521.87
210.966	13660.22
211.041	13825.8
211.115	13962.95
211.189	14120.77
211.263	14275.41
211.337	14411.88
211.411	14550.71
211.485	14684.95
211.559	14826.58
211.633	14962.32
211.707	15061.67
211.781	15203.19
211.855	15288.41
211.929	15417.69
212.003	15530.58
212.077	15671.75
212.151	15819.2
212.225	15957
212.299	16067.23
212.373	16172.83
212.447	16284.99
212.52	16439.07
212.594	16556.43
212.668	16690.18
212.742	16793.8
212.816	16901.76
212.89	17005.91
212.964	17135.16
213.038	17246.15
213.112	17379.7
213.186	17516.08
213.26	17611.32
213.333	17670.88
213.407	17788.52
213.481	17885.92
213.555	18004.91
213.629	18097.24
213.703	18179.41
213.777	18284.89
213.85	18377.04
213.924	18509.27
213.998	18611.24
214.072	18692.06
214.146	18777.83
214.219	18871.28
214.293	18958.11
214.367	19061.77
214.441	19164.75
214.515	19226.29
214.588	19296.26
214.662	19348.12
214.736	19408.84
214.81	19500.3
214.883	19596.68
214.957	19662.36
215.031	19728.77
215.105	19775.61
215.178	19833.29
215.252	19899.99
215.326	19939.03
215.4	19987.31
215.473	20013.67
215.547	20067.79
215.621	20138.2
215.694	20212.76
215.768	20257.96
215.842	20319.84
215.915	20362.44
215.989	20399.65
216.063	20462.49
216.136	20516.81
216.21	20570.45
216.284	20644.14
216.357	20697.29
216.431	20754.79
216.504	20828
216.578	20920.78
216.652	20997.02
216.725	21056.64
216.799	21119.29
216.873	21175.54
216.946	21237.33
217.02	21291.55
217.093	21341.48
217.167	21361.92
217.24	21389.25
217.314	21437.54
217.387	21469.74
217.461	21517.6
217.535	21581.51
217.608	21624.6
217.682	21673.14
217.755	21740.67
217.829	21771.04
217.902	21817.41
217.976	21857.66
218.049	21888.22
218.123	21914.49
218.196	21972
218.27	22014.04
218.343	22047.44
218.417	22099.84
218.49	22140
218.563	22198.28
218.637	22240.03
218.71	22318.75
218.784	22378.92
218.857	22437.83
218.931	22493.36
219.004	22532.26
219.077	22582.74
219.151	22622.47
219.224	22661.18
219.298	22690.06
219.371	22742.61
219.444	22771.97
219.518	22811.31
219.591	22853.21
219.665	22915.56
219.738	22949.11
219.811	22976.5
219.885	23020.47
219.958	23067.24
220.031	23098.44
220.105	23132.29
220.178	23172.5
220.251	23192.76
220.325	23219.66
220.398	23251.35
220.471	23286.59
220.544	23333.61
220.618	23348.85
220.691	23380.82
220.764	23417.51
220.838	23457.39
220.911	23489.27
220.984	23545.45
221.057	23586.3
221.131	23622.66
221.204	23618.27
221.277	23663.94
221.35	23731.36
221.424	23753.45
221.497	23782
221.57	23801.92
221.643	23835.92
221.716	23859.51
221.79	23872.43
221.863	23895.39
221.936	23913.04
222.009	23935.76
222.082	23954.71
222.155	23970.96
222.229	23999.71
222.302	24018.57
222.375	24034.72
222.448	24051.56
222.521	24058.36
222.594	24070.8
222.667	24067.86
222.74	24096.85
222.814	24100.56
222.887	24091.01
222.96	24115.18
223.033	24131.34
223.106	24155.93
223.179	24171.32
223.252	24188.4
223.325	24201.42
223.398	24209.53
223.471	24215.07
223.544	24225.92
223.617	24234.85
223.69	24248.55
223.763	24241.12
223.837	24255.35
223.91	24269.63
223.983	24252.84
224.056	24248.6
224.129	24254.63
224.202	24272.91
224.275	24275.37
224.348	24274.59
224.42	24270.45
224.493	24254.82
224.566	24255.15
224.639	24258.1
224.712	24242.42
224.785	24234.85
224.858	24229.2
224.931	24229.06
225.004	24220.62
225.077	24218.74
225.15	24183.91
225.223	24173.06
225.296	24203.45
225.369	24165.01
225.442	24147.45
225.514	24156.76
225.587	24156.9
225.66	24151.26
225.733	24138.48
225.806	24128.25
225.879	24102.83
225.952	24085.23
226.025	24096.32
226.097	24106.31
226.17	24098.83
226.243	24073.22
226.316	24052.24
226.389	24049.06
226.461	24040.52
226.534	24031.5
226.607	24011.05
226.68	24031.55
226.753	24029.38
226.825	23986.06
226.898	23997.01
226.971	23987.99
227.044	23977.86
227.117	23970.87
227.189	23959.44
227.262	23967.97
227.335	23957.6
227.407	23949.98
227.48	23942.03
227.553	23917.67
227.626	23889.93
227.698	23873.77
227.771	23876.47
227.844	23868.47
227.916	23849.47
227.989	23817.68
228.062	23801.29
228.134	23815.61
228.207	23803.02
228.28	23779.49
228.352	23772.88
228.425	23764.2
228.498	23753.3
228.57	23718.58
228.643	23711.54
228.716	23698.66
228.788	23665.14
228.861	23642.23
228.934	23640.88
229.006	23626.8
229.079	23600.42
229.151	23566.61
229.224	23531.27
229.296	23509.57
229.369	23510.87
229.442	23509.57
229.514	23474.76
229.587	23475.53
229.659	23431.88
229.732	23411.63
229.804	23401.55
229.877	23406.33
229.949	23398.51
230.022	23410.04
230.094	23392.49
230.167	23371.46
230.239	23339.49
230.312	23322.86
230.384	23329.13
230.457	23311.14
230.529	23297.25
230.602	23288.38
230.674	23287.94
230.747	23295.66
230.819	23295.76
230.892	23241.12
230.964	23231.19
231.037	23235.14
231.109	23211.08
231.181	23213.69
231.254	23178.29
231.326	23162.77
231.399	23136.1
231.471	23103.6
231.544	23041.73
231.616	23038.21
231.688	23023.6
231.761	23001.52
231.833	22979.97
231.905	22932
231.978	22896.94
232.05	22867.39
232.122	22848.34
232.195	22808.95
232.267	22797.77
232.339	22759.87
232.412	22757.12
232.484	22713.1
232.556	22683.5
232.629	22685.96
232.701	22649.85
232.773	22628.63
232.846	22593.92
232.918	22577.05
232.99	22562.63
233.062	22556.51
233.135	22532.36
233.207	22483.42
233.279	22454.55
233.351	22422.97
233.424	22397.81
233.496	22363.24
233.568	22365.94
233.64	22324.05
233.713	22288.67
233.785	22250.05
233.857	22229.61
233.929	22193.65
234.001	22183.24
234.074	22173.55
234.146	22110.11
234.218	22086.2
234.29	22057.27
234.362	22023.39
234.434	21968.24
234.507	21914.01
234.579	21860.12
234.651	21825.31
234.723	21812.59
234.795	21790.22
234.867	21769.06
234.939	21748.72
235.012	21738.79
235.084	21704.47
235.156	21682.63
235.228	21658.25
235.3	21616.7
235.372	21585.8
235.444	21567.87
235.516	21517.35
235.588	21485.54
235.66	21459.75
235.732	21411.56
235.804	21441.97
235.876	21425.49
235.948	21404.57
236.02	21377.68
236.092	21340.66
236.164	21315.41
236.236	21269.18
236.308	21221.28
236.38	21183.35
236.452	21141.42
236.524	21100.79
236.596	21075.96
236.668	21041.12
236.74	21005.45
236.812	20984.25
236.884	20950.61
236.956	20908.53
237.028	20865.4
237.1	20808.58
237.172	20796.72
237.244	20798.12
237.316	20720.28
237.388	20668.42
237.46	20625.91
237.532	20603.69
237.604	20571.45
237.675	20544.22
237.747	20528.51
237.819	20493
237.891	20461.77
237.963	20420.13
238.035	20375.17
238.107	20300.42
238.178	20279.31
238.25	20231.79
238.322	20216.76
238.394	20163.17
238.466	20122.2
238.538	20093.87
238.609	20076.42
238.681	20012.81
238.753	19958.35
238.825	19925.92
238.897	19895.7
238.968	19875.85
239.04	19833.73
239.112	19826.12
239.184	19777.78
239.255	19726.99
239.327	19709.93
239.399	19680.43
239.471	19657.45
239.542	19625.74
239.614	19604.29
239.686	19547.43
239.758	19533.79
239.829	19482.66
239.901	19464.45
239.973	19431.44
240.044	19393.51
240.116	19364.4
240.188	19330.72
240.259	19294.34
240.331	19244.36
240.403	19218.97
240.474	19166.44
240.546	19113.96
240.618	19048.47
240.689	18999.22
240.761	18966.64
240.833	18937.73
240.904	18889.4
240.976	18851.81
241.048	18822.32
241.119	18796.39
241.191	18760.54
241.262	18748.3
241.334	18705.26
241.405	18661.75
241.477	18619.73
241.549	18588.55
241.62	18544.55
241.692	18512.45
241.763	18488.26
241.835	18463.45
241.906	18425.04
241.978	18378.05
242.049	18364.94
242.121	18347.31
242.192	18334.49
242.264	18280.66
242.335	18219.5
242.407	18197
242.478	18155.12
242.55	18123.75
242.621	18080.04
242.693	18040.14
242.764	17983.8
242.836	17942.22
242.907	17912.48
242.979	17887.76
243.05	17855.13
243.122	17823.13
243.193	17787.18
243.264	17722.65
243.336	17674.99
243.407	17648.44
243.479	17629.36
243.55	17594.66
243.622	17560.06
243.693	17518.22
243.764	17499.82
243.836	17458.51
243.907	17415.48
243.978	17374.37
244.05	17343.43
244.121	17294.03
244.192	17275.52
244.264	17227.62
244.335	17201.4
244.407	17151.96
244.478	17124.05
244.549	17082.03
244.62	17034.27
244.692	16985.64
244.763	16967.61
244.834	16935.85
244.906	16892.62
244.977	16858.16
245.048	16838.21
245.119	16796.91
245.191	16749.19
245.262	16694.35
245.333	16684.51
245.405	16652.37
245.476	16629.47
245.547	16592.36
245.618	16561.66
245.689	16526.43
245.761	16501.03
245.832	16457.7
245.903	16431.68
245.974	16396.3
246.045	16361.65
246.117	16346.18
246.188	16312.63
246.259	16268
246.33	16225.54
246.401	16192.09
246.473	16146.59
246.544	16105.09
246.615	16077.71
246.686	16044.94
246.757	16031.01
246.828	15982.57
246.899	15964.45
246.97	15910.32
247.042	15870.22
247.113	15851.23
247.184	15833.68
247.255	15794.3
247.326	15766.25
247.397	15728.65
247.468	15691.83
247.539	15660.64
247.61	15614.8
247.681	15593.21
247.752	15573.45
247.823	15535.37
247.894	15502.01
247.965	15460.46
248.037	15423.06
248.108	15380.74
248.179	15355
248.25	15325.55
248.321	15303.76
248.392	15260.28
248.463	15259.46
248.534	15219.12
248.605	15192.9
248.675	15155.06
248.746	15128.93
248.817	15101.12
248.888	15082.37
248.959	15039.85
249.03	15022.4
249.101	14992.28
249.172	14955.59
249.243	14901.12
249.314	14888.49
249.385	14863.52
249.456	14850.27
249.527	14821.3
249.598	14799.7
249.669	14768.03
249.739	14744.17
249.81	14718.14
249.881	14671.77
249.952	14640.92
250.023	14626.55
250.094	14584.95
250.165	14549.71
250.235	14526.43
250.306	14505.17
250.377	14460.39
250.448	14439.81
250.519	14387.36
250.59	14381.77
250.66	14356.6
250.731	14345.47
250.802	14318.76
250.873	14297.99
250.944	14272.53
251.014	14242.12
251.085	14239.85
251.156	14222.93
251.227	14206.97
251.297	14201.82
251.368	14199.41
251.439	14182.63
251.51	14162.58
251.58	14123.53
251.651	14095.33
251.722	14074.5
251.792	14029.19
251.863	14007.26
251.934	13998.82
252.005	14014.54
252.075	13982.72
252.146	13970.96
252.217	13965.75
252.287	13951.96
252.358	13916.73
252.429	13909.64
252.499	13876.67
252.57	13853.62
252.641	13838
252.711	13805.22
252.782	13760.01
252.852	13755.48
252.923	13734.84
252.994	13712.76
253.064	13706.35
253.135	13675.6
253.205	13646.58
253.276	13645.81
253.347	13644.6
253.417	13606.08
253.488	13568.19
253.558	13548.86
253.629	13521.38
253.699	13503.74
253.77	13483.93
253.841	13457.7
253.911	13434.18
253.982	13418.13
254.052	13403.62
254.123	13378.69
254.193	13358.69
254.264	13384.14
254.334	13345
254.405	13307.01
254.475	13275
254.546	13253.02
254.616	13245.98
254.687	13225.73
254.757	13208.43
254.827	13176.13
254.898	13162.29
254.968	13142.14
255.039	13104.25
255.109	13088.83
255.18	13051.42
255.25	13008.71
255.321	12996.22
255.391	12954.57
255.461	12954.57
255.532	12897.88
255.602	12872.91
255.673	12834.93
255.743	12796.41
255.813	12747.87
255.884	12734.9
255.954	12722.8
256.024	12716.15
256.095	12698.36
256.165	12664.52
256.235	12642.64
256.306	12619.55
256.376	12610.53
256.446	12602.72
256.517	12591.63
256.587	12587.1
256.657	12567.97
256.728	12549.26
256.798	12530.42
256.868	12513.25
256.938	12483.32
257.009	12483.85
257.079	12476.72
257.149	12489.63
257.219	12445.77
257.29	12436.85
257.36	12399.06
257.43	12387.54
257.5	12343.91
257.571	12316.68
257.641	12306.12
257.711	12275.37
257.781	12267.51
257.852	12256.67
257.922	12210.29
257.992	12185.81
258.062	12161.03
258.132	12153.22
258.202	12129.94
258.273	12119.58
258.343	12118.28
258.413	12088.2
258.483	12062.46
258.553	12031.8
258.623	11997.34
258.693	11985.82
258.764	11984.9
258.834	11987.36
258.904	11967.26
258.974	11941.81
259.044	11918.34
259.114	11908.99
259.184	11891.54
259.254	11867.15
259.324	11819.81
259.394	11805.93
259.464	11812.59
259.535	11792.1
259.605	11770.7
259.675	11750.22
259.745	11734.89
259.815	11702.64
259.885	11677.53
259.955	11691.12
260.025	11661.05
260.095	11644.76
260.165	11624.42
260.235	11627.07
260.305	11592.22
260.375	11558.53
260.445	11566.05
260.515	11571.69
260.585	11563.74
260.655	11555.06
260.725	11551.11
260.795	11549.13
260.865	11558.34
260.934	11526.14
261.004	11518.96
261.074	11499.68
261.144	11505.13
261.214	11496.94
261.284	11488.21
261.354	11488.69
261.424	11455.05
261.494	11461.17
261.564	11445.07
261.634	11437.65
261.703	11398.85
261.773	11386.47
261.843	11385.12
261.913	11372.68
261.983	11328.92
