Data from 20250703_urea_0.1M_MAYP1162681_22-11-05-558.txt Node
Date: Thu Jul 03 22:11:05 BST 2025
User: adleo
Spectrometer: MAYP116268
Trigger mode: 0
Integration Time (sec): 1.000000E0
Scans to average: 1
Electric dark correction enabled: true
Nonlinearity correction enabled: true
Boxcar width: 10
XAxis mode: Wavelengths
Number of Pixels in Spectrum: 2068
>>>>>Begin Spectral Data<<<<<
179.565	1387.78
179.642	1452.99
179.718	1505.63
179.795	1549.83
179.871	1587.73
179.948	1606.73
180.024	1632.47
180.101	1661.08
180.177	1676.94
180.254	1703.56
180.33	1729.26
180.407	1795.75
180.483	1907.22
180.56	2011.33
180.636	2108.68
180.712	2096.07
180.789	2108.2
180.865	2120.89
180.942	2130.55
181.018	2140.54
181.095	2154.67
181.171	2161.09
181.248	2163.62
181.324	2181.08
181.4	2187.74
181.477	2199.59
181.553	2215.48
181.63	2236.08
181.706	2251.74
181.782	2262.25
181.859	2262.06
181.935	2267.34
182.011	2263.68
182.088	2279.67
182.164	2299.14
182.24	2314.51
182.317	2323.17
182.393	2320.79
182.469	2337.69
182.546	2352.44
182.622	2358.2
182.698	2350.96
182.775	2363.1
182.851	2377.57
182.927	2369.53
183.003	2365.25
183.08	2359.15
183.156	2369.72
183.232	2368.34
183.308	2356.15
183.385	2365.1
183.461	2382.9
183.537	2386.67
183.613	2402.37
183.69	2393.85
183.766	2385.19
183.842	2394.56
183.918	2399.09
183.995	2414.27
184.071	2418.46
184.147	2412.27
184.223	2396.76
184.299	2411.09
184.375	2399.29
184.452	2405.81
184.528	2455.29
184.604	2471.23
184.68	2485.32
184.756	2492.84
184.832	2495.7
184.908	2503.36
184.985	2501.6
185.061	2483.51
185.137	2491.28
185.213	2479.04
185.289	2479.85
185.365	2472.19
185.441	2470.52
185.517	2484.71
185.593	2478.95
185.669	2475.14
185.745	2486.76
185.822	2508.89
185.898	2502.17
185.974	2511.03
186.05	2501.74
186.126	2467.55
186.202	2460.46
186.278	2454.08
186.354	2444.36
186.43	2453.37
186.506	2450.18
186.582	2449.8
186.658	2462.12
186.734	2438.52
186.81	2441.04
186.886	2443.8
186.962	2458.32
187.038	2453.94
187.114	2449.7
187.19	2457.46
187.266	2446.66
187.341	2448.47
187.417	2438.75
187.493	2436.47
187.569	2438.85
187.645	2432.37
187.721	2420.09
187.797	2424.28
187.873	2430.9
187.949	2426.75
188.025	2420.61
188.101	2422.18
188.176	2426.61
188.252	2416.9
188.328	2429.46
188.404	2428.13
188.48	2422.56
188.556	2412.18
188.632	2410.7
188.707	2408.27
188.783	2406.37
188.859	2402.13
188.935	2390.8
189.011	2401.46
189.086	2396.7
189.162	2389.52
189.238	2389.9
189.314	2386.18
189.39	2380
189.465	2370.14
189.541	2387.43
189.617	2368.81
189.693	2364.29
189.768	2369.82
189.844	2396.91
189.92	2386.16
189.996	2397.2
190.071	2410.87
190.147	2412.82
190.223	2424.2
190.298	2418.77
190.374	2407.3
190.45	2419.77
190.526	2426.48
190.601	2418.34
190.677	2418.67
190.753	2447.49
190.828	2451.82
190.904	2469.54
190.98	2487.77
191.055	2499.68
191.131	2488.58
191.207	2511.24
191.282	2518.81
191.358	2509.52
191.433	2491.8
191.509	2506.94
191.585	2501.37
191.66	2502.46
191.736	2511.08
191.811	2499.8
191.887	2516.61
191.963	2537.13
192.038	2543.52
192.114	2545.99
192.189	2550.66
192.265	2548.47
192.34	2524.12
192.416	2519.32
192.491	2514.22
192.567	2516.98
192.642	2521.27
192.718	2523.08
192.793	2512.13
192.869	2509.17
192.944	2510.98
193.02	2520.46
193.095	2524.98
193.171	2531.08
193.246	2529.36
193.322	2524.27
193.397	2527.7
193.473	2510.45
193.548	2494.07
193.624	2499.83
193.699	2498.69
193.775	2518.22
193.85	2517.75
193.925	2529.51
194.001	2530.41
194.076	2523.84
194.152	2511.98
194.227	2501.22
194.302	2487.56
194.378	2490.22
194.453	2489.18
194.529	2502.37
194.604	2489.13
194.679	2478.42
194.755	2460
194.83	2473.67
194.905	2469.48
194.981	2477.58
195.056	2470.44
195.131	2475.63
195.207	2476.44
195.282	2463.15
195.357	2441.81
195.433	2457.71
195.508	2445.05
195.583	2453.66
195.659	2470.05
195.734	2479.43
195.809	2481.72
195.884	2494.9
195.96	2494.38
196.035	2510.52
196.11	2504.8
196.185	2517.85
196.261	2526.09
196.336	2560.47
196.411	2544.08
196.486	2551.56
196.561	2546.08
196.637	2554.65
196.712	2573.56
196.787	2572.61
196.862	2595.51
196.937	2607.28
197.013	2617.95
197.088	2628.95
197.163	2652.78
197.238	2667.98
197.313	2667.03
197.388	2684.32
197.464	2715.68
197.539	2728.92
197.614	2724.11
197.689	2742.93
197.764	2759.18
197.839	2779.72
197.914	2771.81
197.989	2798.16
198.065	2814.64
198.14	2867.72
198.215	2896.65
198.29	2912.05
198.365	2932.07
198.44	2939.98
198.515	2968.39
198.59	2982.79
198.665	3011.16
198.74	3021.03
198.815	3023.84
198.89	3050.68
198.965	3078.92
199.04	3074.49
199.115	3090.55
199.19	3133.84
199.265	3131.99
199.34	3143.43
199.415	3181.46
199.49	3209.02
199.565	3219.37
199.64	3243.27
199.715	3242.41
199.79	3254.19
199.865	3257.44
199.94	3253.38
200.015	3289.79
200.09	3296.42
200.165	3303.15
200.24	3314.51
200.315	3357.73
200.39	3376.15
200.464	3379.87
200.539	3385.89
200.614	3403.16
200.689	3433.8
200.764	3444.49
200.839	3467.1
200.914	3475.35
200.989	3464.66
201.063	3476.73
201.138	3458.47
201.213	3462.62
201.288	3440.81
201.363	3445.2
201.438	3450.02
201.512	3466.81
201.587	3448.58
201.662	3453.92
201.737	3469.86
201.812	3477.74
201.886	3441.82
201.961	3448.51
202.036	3437.91
202.111	3432.14
202.186	3404.05
202.26	3382.52
202.335	3358.84
202.41	3352.5
202.485	3333.37
202.559	3313.38
202.634	3287.8
202.709	3303.68
202.784	3283.69
202.858	3284.26
202.933	3266.56
203.008	3261.22
203.082	3245.33
203.157	3245.43
203.232	3203.89
203.306	3184.99
203.381	3156.5
203.456	3138.04
203.53	3124.34
203.605	3111.75
203.68	3098.63
203.754	3100.82
203.829	3097.53
203.904	3086.71
203.978	3087.8
204.053	3106.88
204.127	3108.22
204.202	3122.96
204.277	3119.29
204.351	3128.68
204.426	3144
204.5	3155.07
204.575	3141.86
204.65	3181.71
204.724	3205.73
204.799	3244.83
204.873	3273.04
204.948	3304.11
205.022	3323.81
205.097	3352.71
205.171	3405.63
205.246	3454.73
205.32	3498.53
205.395	3544.24
205.469	3581.22
205.544	3637.6
205.618	3673.62
205.693	3742.79
205.767	3786.98
205.842	3870.95
205.916	3927.33
205.991	3980.96
206.065	4054.47
206.14	4141.58
206.214	4205.31
206.289	4271.72
206.363	4363.37
206.438	4445.4
206.512	4532.87
206.586	4640.58
206.661	4734.39
206.735	4801.44
206.81	4889.82
206.884	5002.3
206.958	5087.41
207.033	5208.05
207.107	5318.26
207.181	5456.91
207.256	5557.11
207.33	5684.58
207.405	5810.21
207.479	5945.13
207.553	6066.96
207.628	6167.97
207.702	6294.65
207.776	6408.94
207.851	6525.21
207.925	6658.68
207.999	6778.26
208.073	6900.74
208.148	7028.82
208.222	7146.26
208.296	7307.97
208.371	7459.27
208.445	7601.14
208.519	7761.23
208.593	7908.42
208.668	8038.92
208.742	8168.64
208.816	8308.86
208.89	8461.44
208.965	8591.3
209.039	8736.8
209.113	8889.8
209.187	9050.62
209.261	9184.77
209.336	9344.56
209.41	9508.51
209.484	9644.89
209.558	9812.24
209.632	9967.99
209.707	10123.13
209.781	10285.66
209.855	10451.92
209.929	10611.51
210.003	10753.98
210.077	10894.67
210.151	11081.12
210.226	11252.05
210.3	11428.34
210.374	11593.73
210.448	11732.44
210.522	11877.08
210.596	12017.82
210.67	12163.91
210.744	12352.94
210.818	12522.6
210.892	12679.65
210.966	12813.07
211.041	12972.43
211.115	13095.35
211.189	13251.68
211.263	13396.92
211.337	13525.05
211.411	13661.47
211.485	13783.09
211.559	13926.99
211.633	14045.24
211.707	14139.48
211.781	14276.23
211.855	14354.85
211.929	14461.58
212.003	14565.42
212.077	14695.37
212.151	14826.01
212.225	14947.53
212.299	15047.06
212.373	15151.42
212.447	15258.91
212.52	15400.67
212.594	15511.92
212.668	15636.86
212.742	15725.64
212.816	15828.21
212.89	15935.75
212.964	16034.99
213.038	16135.05
213.112	16243.01
213.186	16370.59
213.26	16447.66
213.333	16503.62
213.407	16619.53
213.481	16710.53
213.555	16822.64
213.629	16907.02
213.703	16995.7
213.777	17097.59
213.85	17172.04
213.924	17304.43
213.998	17393.15
214.072	17474.94
214.146	17555.9
214.219	17647.99
214.293	17741.44
214.367	17833.73
214.441	17930.3
214.515	18009.92
214.588	18075.84
214.662	18135.12
214.736	18196.08
214.81	18286.63
214.883	18366.43
214.957	18417.95
215.031	18490.67
215.105	18535.34
215.178	18605.32
215.252	18668.88
215.326	18714.27
215.4	18770.99
215.473	18779.96
215.547	18836.34
215.621	18893.3
215.694	18962.93
215.768	18998.93
215.842	19046.59
215.915	19093.19
215.989	19124.76
216.063	19172.9
216.136	19231.98
216.21	19287.49
216.284	19356.5
216.357	19418.23
216.431	19482.71
216.504	19557.79
216.578	19636.53
216.652	19712.43
216.725	19768.09
216.799	19834.7
216.873	19887.22
216.946	19940.04
217.02	19999.36
217.093	20042.93
217.167	20074.44
217.24	20103.79
217.314	20152.27
217.387	20199.16
217.461	20240.51
217.535	20312.46
217.608	20347.79
217.682	20393.19
217.755	20449.52
217.829	20487.21
217.902	20531.02
217.976	20576.22
218.049	20622.83
218.123	20661.72
218.196	20711.17
218.27	20741
218.343	20771.27
218.417	20822.69
218.49	20871.22
218.563	20924
218.637	20977.06
218.71	21040.87
218.784	21095.96
218.857	21144.21
218.931	21197.51
219.004	21246.14
219.077	21296.8
219.151	21349.48
219.224	21396.18
219.298	21429.01
219.371	21480
219.444	21512.05
219.518	21550.04
219.591	21580.02
219.665	21652.85
219.738	21698.45
219.811	21736.48
219.885	21786.95
219.958	21830.28
220.031	21868.31
220.105	21913.87
220.178	21963.76
220.251	21988.01
220.325	22033.85
220.398	22077.57
220.471	22120.71
220.544	22159.37
220.618	22186.71
220.691	22226.53
220.764	22254.44
220.838	22300.18
220.911	22322.7
220.984	22371
221.057	22413.23
221.131	22451.22
221.204	22444.18
221.277	22475.9
221.35	22537.9
221.424	22567.31
221.497	22600.09
221.57	22627.28
221.643	22653.22
221.716	22673.95
221.79	22699.41
221.863	22712.66
221.936	22738.51
222.009	22758.47
222.082	22791.59
222.155	22805.76
222.229	22838.5
222.302	22863.77
222.375	22881.99
222.448	22921.62
222.521	22944.48
222.594	22958.51
222.667	22967.86
222.74	23004.36
222.814	23026.25
222.887	23036.81
222.96	23059.09
223.033	23083.83
223.106	23112.37
223.179	23138.02
223.252	23155.77
223.325	23179.3
223.398	23209.77
223.471	23223.47
223.544	23237.21
223.617	23265.61
223.69	23285.38
223.763	23283.36
223.837	23309.83
223.91	23328.39
223.983	23317.16
224.056	23310.6
224.129	23325.26
224.202	23352.65
224.275	23348.84
224.348	23343.87
224.42	23336.01
224.493	23316.92
224.566	23317.25
224.639	23312
224.712	23312.43
224.785	23307.56
224.858	23301.48
224.931	23291.31
225.004	23297.67
225.077	23302.26
225.15	23259.92
225.223	23261.36
225.296	23289.96
225.369	23271.11
225.442	23267.92
225.514	23268.74
225.587	23273.61
225.66	23275.64
225.733	23276.12
225.806	23274.96
225.879	23274.87
225.952	23268.02
226.025	23283.6
226.097	23299.03
226.17	23305.2
226.243	23276.32
226.316	23276.8
226.389	23288.9
226.461	23280.61
226.534	23271.78
226.607	23261.9
226.68	23294.74
226.753	23282.34
226.825	23251.34
226.898	23261.03
226.971	23241.07
227.044	23239.72
227.117	23235.14
227.189	23230.46
227.262	23228.96
227.335	23234.94
227.407	23216.09
227.48	23216.33
227.553	23203.94
227.626	23177.56
227.698	23158.23
227.771	23166.37
227.844	23141.98
227.916	23135.51
227.989	23117.34
228.062	23107.4
228.134	23123.89
228.207	23096.8
228.28	23088.45
228.352	23075.77
228.425	23062.99
228.498	23072.01
228.57	23048.87
228.643	23050.03
228.716	23030.35
228.788	23004.22
228.861	22976.25
228.934	22990.04
229.006	22971.82
229.079	22956.68
229.151	22949.2
229.224	22923.89
229.296	22907.74
229.369	22927.03
229.442	22921.1
229.514	22907.89
229.587	22911.02
229.659	22877.8
229.732	22879.58
229.804	22866.08
229.877	22887.64
229.949	22895.49
230.022	22897.47
230.094	22890.67
230.167	22883.44
230.239	22855.67
230.312	22844.87
230.384	22856.68
230.457	22838.7
230.529	22837.74
230.602	22833.45
230.674	22820.43
230.747	22817.05
230.819	22825.68
230.892	22778.87
230.964	22759.68
231.037	22747
231.109	22718.79
231.181	22709.49
231.254	22669.81
231.326	22656.84
231.399	22626.71
231.471	22583.17
231.544	22539.78
231.616	22528.98
231.688	22501.36
231.761	22477.69
231.833	22454.93
231.905	22411.21
231.978	22392.74
232.05	22363.43
232.122	22343.86
232.195	22308.95
232.267	22312.71
232.339	22280.27
232.412	22273.57
232.484	22243.73
232.556	22223.63
232.629	22215.72
232.701	22198.65
232.773	22183.32
232.846	22151.9
232.918	22119.55
232.99	22110.39
233.062	22099.54
233.135	22081.85
233.207	22051
233.279	22052.25
233.351	22029.21
233.424	22006.51
233.496	21968.91
233.568	21969.54
233.64	21920.47
233.713	21904.75
233.785	21880.89
233.857	21853.51
233.929	21811.72
234.001	21817.17
234.074	21819.96
234.146	21776.77
234.218	21747.08
234.29	21719.41
234.362	21688.33
234.434	21658.59
234.507	21615.3
234.579	21571.34
234.651	21542.09
234.723	21529.41
234.795	21499.33
234.867	21470.56
234.939	21453.49
235.012	21432.29
235.084	21398.21
235.156	21395.17
235.228	21344.08
235.3	21298.25
235.372	21268.32
235.444	21257.33
235.516	21195.53
235.588	21159.09
235.66	21132.44
235.732	21093.11
235.804	21117.5
235.876	21097.79
235.948	21072.25
236.02	21036.49
236.092	20999.47
236.164	20967.33
236.236	20925.97
236.308	20888.82
236.38	20859.71
236.452	20813.29
236.524	20787.51
236.596	20773.58
236.668	20742.06
236.74	20719.7
236.812	20697.82
236.884	20677.82
236.956	20639.79
237.028	20592.85
237.1	20538.93
237.172	20522.64
237.244	20514.2
237.316	20452.56
237.388	20404.46
237.46	20366.39
237.532	20354.97
237.604	20317.77
237.675	20299.93
237.747	20269.19
237.819	20226.54
237.891	20186.01
237.963	20144.95
238.035	20107.12
238.107	20029.92
238.178	20000.71
238.25	19970.74
238.322	19954.54
238.394	19893.63
238.466	19862.93
238.538	19837.3
238.609	19816.43
238.681	19760.72
238.753	19709.4
238.825	19669.11
238.897	19645.98
238.968	19630.99
239.04	19584.78
239.112	19578.46
239.184	19530.03
239.255	19503.19
239.327	19474.08
239.399	19455.63
239.471	19438.86
239.542	19403.97
239.614	19395.44
239.686	19339.06
239.758	19324.45
239.829	19274.96
239.901	19266.77
239.973	19232.17
240.044	19201.28
240.116	19170.58
240.188	19139.65
240.259	19110.92
240.331	19062.73
240.403	19034.5
240.474	18977.63
240.546	18937.92
240.618	18882.36
240.689	18840.15
240.761	18801.98
240.833	18789.64
240.904	18745.98
240.976	18701.07
241.048	18666.76
241.119	18628.54
241.191	18599.77
241.262	18573.03
241.334	18535.68
241.405	18496.5
241.477	18449.9
241.549	18415.3
241.62	18365.28
241.692	18333.52
241.763	18299.12
241.835	18266.97
241.906	18230.69
241.978	18177.15
242.049	18155.75
242.121	18135.7
242.192	18112.33
242.264	18055.37
242.335	17993.88
242.407	17972.33
242.478	17936.19
242.55	17908.67
242.621	17864.29
242.693	17828.72
242.764	17782.7
242.836	17736.53
242.907	17700.39
242.979	17675.28
243.05	17641.5
243.122	17620.92
243.193	17582.03
243.264	17527.33
243.336	17493.26
243.407	17471.82
243.479	17466.37
243.55	17435.72
243.622	17407.53
243.693	17369.55
243.764	17358.47
243.836	17311.57
243.907	17266.37
243.978	17231.09
244.05	17199.38
244.121	17143.95
244.192	17116.68
244.264	17069.98
244.335	17041.35
244.407	16991.66
244.478	16955.23
244.549	16917.92
244.62	16864.76
244.692	16838.64
244.763	16810.54
244.834	16769
244.906	16729.67
244.977	16704.27
245.048	16675.41
245.119	16625.57
245.191	16589.62
245.262	16536.02
245.333	16528.6
245.405	16492.55
245.476	16473.17
245.547	16438.62
245.618	16422.04
245.689	16397.55
245.761	16367.58
245.832	16335.24
245.903	16312.39
245.974	16288.24
246.045	16252.09
246.117	16243.37
246.188	16195.56
246.259	16155.12
246.33	16117.72
246.401	16071.69
246.473	16017.32
246.544	15985.7
246.615	15960.98
246.686	15917.79
246.757	15902.9
246.828	15857.78
246.899	15848.72
246.97	15793.14
247.042	15758.63
247.113	15739.02
247.184	15723.83
247.255	15682.62
247.326	15650.13
247.397	15615.77
247.468	15579.09
247.539	15552.19
247.61	15498.45
247.681	15469.43
247.752	15448.61
247.823	15406.77
247.894	15384.11
247.965	15345.74
248.037	15303.08
248.108	15265.05
248.179	15241.05
248.25	15206.54
248.321	15184.22
248.392	15133.12
248.463	15132.35
248.534	15099.91
248.605	15077.98
248.675	15039.52
248.746	15020.09
248.817	15003.17
248.888	14980.32
248.959	14937.9
249.03	14915.92
249.101	14894.38
249.172	14870.51
249.243	14822.02
249.314	14820.67
249.385	14792.47
249.456	14764.51
249.527	14737.86
249.598	14710.72
249.669	14677.94
249.739	14651.28
249.81	14629.01
249.881	14587.84
249.952	14554.68
250.023	14521.46
250.094	14475.62
250.165	14435.47
250.235	14404.18
250.306	14365.57
250.377	14320.69
250.448	14297.17
250.519	14243.18
250.59	14230.45
250.66	14201.77
250.731	14190.78
250.802	14159.78
250.873	14136.93
250.944	14127.1
251.014	14094.8
251.085	14100.92
251.156	14081.4
251.227	14067.95
251.297	14058.69
251.368	14046.69
251.439	14036.37
251.51	14032.9
251.58	14000.22
251.651	13971.87
251.722	13965.08
251.792	13929.5
251.863	13902.07
251.934	13905.35
252.005	13918.32
252.075	13897.25
252.146	13873.48
252.217	13869.77
252.287	13856.61
252.358	13831.69
252.429	13818.58
252.499	13787.05
252.57	13759.62
252.641	13743.91
252.711	13720.09
252.782	13670.73
252.852	13674.2
252.923	13640.45
252.994	13610.81
253.064	13600.78
253.135	13566.51
253.205	13529.29
253.276	13525.14
253.347	13522.16
253.417	13483.59
253.488	13451.92
253.558	13422.32
253.629	13403.62
253.699	13383.13
253.77	13368.95
253.841	13342.2
253.911	13327.3
253.982	13310.91
254.052	13298.33
254.123	13281.27
254.193	13256.73
254.264	13277.8
254.334	13245.06
254.405	13206.98
254.475	13173.86
254.546	13146.92
254.616	13149.23
254.687	13135.15
254.757	13119.25
254.827	13103.19
254.898	13084.01
254.968	13062.7
255.039	13031.94
255.109	13019.56
255.18	12982.29
255.25	12932.25
255.321	12916.4
255.391	12875.37
255.461	12872.62
255.532	12822.1
255.602	12800.56
255.673	12755
255.743	12722.9
255.813	12672.47
255.884	12668.38
255.954	12654.16
256.024	12651.36
256.095	12629.43
256.165	12598.67
256.235	12583.05
256.306	12554.47
256.376	12548.78
256.446	12535.86
256.517	12517.83
256.587	12515.71
256.657	12505.78
256.728	12495.56
256.798	12474.21
256.868	12449.29
256.938	12416.85
257.009	12412.41
257.079	12397.76
257.149	12411.98
257.219	12375.92
257.29	12369.75
257.36	12335.43
257.43	12328.2
257.5	12285.15
257.571	12254.54
257.641	12243.94
257.711	12212.7
257.781	12197.14
257.852	12177.32
257.922	12136.88
257.992	12116.64
258.062	12085.5
258.132	12071.52
258.202	12048.14
258.273	12032.04
258.343	12037.01
258.413	12015.56
258.483	11985.38
258.553	11954.44
258.623	11923.97
258.693	11911.92
258.764	11907.78
258.834	11903.97
258.904	11888.06
258.974	11857.51
259.044	11838.13
259.114	11815.72
259.184	11802.66
259.254	11781.55
259.324	11740.58
259.394	11730.55
259.464	11732.38
259.535	11715.37
259.605	11689.68
259.675	11663.84
259.745	11657.53
259.815	11618.97
259.885	11591.55
259.955	11609.04
260.025	11580.66
260.095	11561.19
260.165	11547.45
260.235	11544.65
260.305	11514.63
260.375	11477.51
260.445	11488.94
260.515	11491.83
260.585	11491.39
260.655	11475.06
260.725	11472.02
260.795	11467.78
260.865	11476.74
260.934	11448.11
261.004	11439.05
261.074	11422.67
261.144	11425.56
261.214	11415.92
261.284	11406.57
261.354	11407.92
261.424	11377.22
261.494	11387
261.564	11374.81
261.634	11364.49
261.703	11320.49
261.773	11315.91
261.843	11311.81
261.913	11295.09
