Data from 20250703_urea_0.1M_MAYP1162681_18-51-05-510.txt Node
Date: Thu Jul 03 18:51:05 BST 2025
User: adleo
Spectrometer: MAYP116268
Trigger mode: 0
Integration Time (sec): 1.000000E0
Scans to average: 1
Electric dark correction enabled: true
Nonlinearity correction enabled: true
Boxcar width: 10
XAxis mode: Wavelengths
Number of Pixels in Spectrum: 2068
>>>>>Begin Spectral Data<<<<<
179.565	1371.83
179.642	1437.51
179.718	1486.17
179.795	1530.52
179.871	1570.15
179.948	1591.91
180.024	1616.51
180.101	1641.93
180.177	1656.43
180.254	1682.2
180.33	1706.86
180.407	1772.93
180.483	1880.64
180.56	1986.98
180.636	2081.52
180.712	2064.49
180.789	2078.56
180.865	2090.69
180.942	2101.01
181.018	2113.04
181.095	2130.32
181.171	2137.26
181.248	2139.12
181.324	2156.44
181.4	2163.77
181.477	2172.81
181.553	2187.36
181.63	2210.44
181.706	2228.9
181.782	2240.98
181.859	2240.37
181.935	2246.6
182.011	2241.27
182.088	2258.02
182.164	2274.45
182.24	2292.67
182.317	2299.71
182.393	2296.24
182.469	2312.61
182.546	2324.79
182.622	2328.98
182.698	2318.88
182.775	2328.31
182.851	2342.35
182.927	2330.36
183.003	2326.93
183.08	2322.17
183.156	2329.36
183.232	2325.79
183.308	2313.75
183.385	2322.07
183.461	2341.02
183.537	2343.16
183.613	2358.49
183.69	2348.68
183.766	2338.01
183.842	2343.06
183.918	2353.06
183.995	2368.86
184.071	2371.24
184.147	2368
184.223	2358.53
184.299	2375.24
184.375	2364.68
184.452	2371.82
184.528	2429.62
184.604	2441.19
184.68	2450.52
184.756	2461.9
184.832	2464.18
184.908	2470.37
184.985	2469.28
185.061	2451.33
185.137	2458.76
185.213	2443.48
185.289	2445.91
185.365	2438.77
185.441	2436.1
185.517	2450.82
185.593	2446.3
185.669	2447.11
185.745	2458.2
185.822	2475.9
185.898	2465.24
185.974	2474.47
186.05	2462.76
186.126	2426.28
186.202	2419.76
186.278	2420.04
186.354	2404.76
186.43	2411.33
186.506	2407.38
186.582	2406.62
186.658	2416.38
186.734	2393.44
186.81	2398.24
186.886	2399.34
186.962	2411.81
187.038	2411.05
187.114	2402.09
187.19	2410.52
187.266	2396.05
187.341	2396.91
187.417	2385.48
187.493	2385.67
187.569	2387.58
187.645	2385.72
187.721	2374.96
187.797	2381.15
187.873	2384.91
187.949	2384.77
188.025	2379.91
188.101	2383.43
188.176	2388.52
188.252	2381.53
188.328	2392.52
188.404	2394.66
188.48	2391.76
188.556	2385.66
188.632	2382.38
188.707	2379.33
188.783	2376.28
188.859	2371.52
188.935	2358.72
189.011	2369.19
189.086	2362.1
189.162	2353.2
189.238	2346.25
189.314	2341.35
189.39	2331.87
189.465	2321.88
189.541	2336.3
189.617	2316.84
189.693	2313.6
189.768	2318.46
189.844	2347.22
189.92	2338.9
189.996	2348.51
190.071	2360.99
190.147	2359.46
190.223	2371.17
190.298	2365.03
190.374	2350.13
190.45	2364.22
190.526	2371.65
190.601	2363.17
190.677	2366.55
190.753	2399.94
190.828	2406.98
190.904	2423.46
190.98	2442.21
191.055	2456.78
191.131	2446.5
191.207	2471.68
191.282	2479.77
191.358	2466.96
191.433	2449.2
191.509	2462.66
191.585	2460.19
191.66	2460
191.736	2469.85
191.811	2458.85
191.887	2475.33
191.963	2501.42
192.038	2508.37
192.114	2509.57
192.189	2516.56
192.265	2513.09
192.34	2488.13
192.416	2483.03
192.491	2479.32
192.567	2483.8
192.642	2485.32
192.718	2487.27
192.793	2475.22
192.869	2468.99
192.944	2470.89
193.02	2475.84
193.095	2479.84
193.171	2482.84
193.246	2484.27
193.322	2479.13
193.397	2481.99
193.473	2465.46
193.548	2445.36
193.624	2451.41
193.699	2451.46
193.775	2468.27
193.85	2469.42
193.925	2478.8
194.001	2477.18
194.076	2468.99
194.152	2459.56
194.227	2451.65
194.302	2441.23
194.378	2445.51
194.453	2443.61
194.529	2461.75
194.604	2450.33
194.679	2444.61
194.755	2423.01
194.83	2434.87
194.905	2432.96
194.981	2441.82
195.056	2435.35
195.131	2440.06
195.207	2435.11
195.282	2423.78
195.357	2401.96
195.433	2420.2
195.508	2406.96
195.583	2421.58
195.659	2439.01
195.734	2444.72
195.809	2445.91
195.884	2459.05
195.96	2458.91
196.035	2476.67
196.11	2468.62
196.185	2478.95
196.261	2480.66
196.336	2517.04
196.411	2501.89
196.486	2507.79
196.561	2501.6
196.637	2511.27
196.712	2530.22
196.787	2535.75
196.862	2553.89
196.937	2566.22
197.013	2570.22
197.088	2583.89
197.163	2607.71
197.238	2623.35
197.313	2623.21
197.388	2638.31
197.464	2669.24
197.539	2679.62
197.614	2674.9
197.689	2688.34
197.764	2707.49
197.839	2730.69
197.914	2723.3
197.989	2746.98
198.065	2761.51
198.14	2815.01
198.215	2844.74
198.29	2855.04
198.365	2871.01
198.44	2882.44
198.515	2913.14
198.59	2930.87
198.665	2960.43
198.74	2969.78
198.815	2969.21
198.89	2992.32
198.965	3026.52
199.04	3020.37
199.115	3040.25
199.19	3084.06
199.265	3089.21
199.34	3101.13
199.415	3136.77
199.49	3163.04
199.565	3175.44
199.64	3203.44
199.715	3201.53
199.79	3209.49
199.865	3218.17
199.94	3214.64
200.015	3248.33
200.09	3254.48
200.165	3258.44
200.24	3262.64
200.315	3303.9
200.39	3324.18
200.464	3333.48
200.539	3332.53
200.614	3351.56
200.689	3377.61
200.764	3386.64
200.839	3408.77
200.914	3413.4
200.989	3401.46
201.063	3417.88
201.138	3398.43
201.213	3402.05
201.288	3380.91
201.363	3386.83
201.438	3390.31
201.512	3408.01
201.587	3389.54
201.662	3392.31
201.737	3409.96
201.812	3421.66
201.886	3384.98
201.961	3395.72
202.036	3382.22
202.111	3379.93
202.186	3348.94
202.26	3331.13
202.335	3309.8
202.41	3303.4
202.485	3289.57
202.559	3274.97
202.634	3246.49
202.709	3258.12
202.784	3239.65
202.858	3241.99
202.933	3227.73
203.008	3223.67
203.082	3208.31
203.157	3214.52
203.232	3174.37
203.306	3156.14
203.381	3127.61
203.456	3111.63
203.53	3096.35
203.605	3088.87
203.68	3075.08
203.754	3080.22
203.829	3077.89
203.904	3067.63
203.978	3070.45
204.053	3090.34
204.127	3093.35
204.202	3111.71
204.277	3116.29
204.351	3133.08
204.426	3150.93
204.5	3165.38
204.575	3156.61
204.65	3198.13
204.724	3224.21
204.799	3271.32
204.873	3303.54
204.948	3340.91
205.022	3370.02
205.097	3404.36
205.171	3463.12
205.246	3519.1
205.32	3570.93
205.395	3624.63
205.469	3673.22
205.544	3740.27
205.618	3783.42
205.693	3860.83
205.767	3917.41
205.842	4010.73
205.916	4072.1
205.991	4138.04
206.065	4220.67
206.14	4319.37
206.214	4397.48
206.289	4476.21
206.363	4576.47
206.438	4672.79
206.512	4776.49
206.586	4895.94
206.661	5007.97
206.735	5087.6
206.81	5196.07
206.884	5323.52
206.958	5420.85
207.033	5553.78
207.107	5675.53
207.181	5829.16
207.256	5935.98
207.33	6075.91
207.405	6216.5
207.479	6367.63
207.553	6503.27
207.628	6622.21
207.702	6764.62
207.776	6896.81
207.851	7040.12
207.925	7194.19
207.999	7330.57
208.073	7470.01
208.148	7621.02
208.222	7753.12
208.296	7933.26
208.371	8099.77
208.445	8260.06
208.519	8441.37
208.593	8607.67
208.668	8757.2
208.742	8914.34
208.816	9082.3
208.89	9250.32
208.965	9400.09
209.039	9572.98
209.113	9758.77
209.187	9933.93
209.261	10098.12
209.336	10276.53
209.41	10455.26
209.484	10622.25
209.558	10807.16
209.632	10979.41
209.707	11153.65
209.781	11339.95
209.855	11521.82
209.929	11696.73
210.003	11852.11
210.077	12009.43
210.151	12215.96
210.226	12410.93
210.3	12599.12
210.374	12776.5
210.448	12938.84
210.522	13101.05
210.596	13257.47
210.67	13423.73
210.744	13626.57
210.818	13805.7
210.892	13976.25
210.966	14113.63
211.041	14277.24
211.115	14420.94
211.189	14593.07
211.263	14759.04
211.337	14902.73
211.411	15060.6
211.485	15201.78
211.559	15363.07
211.633	15501.22
211.707	15602.44
211.781	15746.7
211.855	15843.96
211.929	15973.96
212.003	16081.98
212.077	16234.96
212.151	16379.65
212.225	16510.4
212.299	16635.9
212.373	16755.53
212.447	16880.11
212.52	17045.61
212.594	17165.62
212.668	17295.65
212.742	17410.93
212.816	17519.07
212.89	17630.64
212.964	17745.77
213.038	17858.63
213.112	17997.67
213.186	18132.03
213.26	18234.82
213.333	18296.7
213.407	18412.84
213.481	18524.69
213.555	18656.4
213.629	18745.35
213.703	18838.65
213.777	18944.81
213.85	19023.99
213.924	19163.41
213.998	19267.74
214.072	19363.25
214.146	19453.85
214.219	19562.04
214.293	19659.87
214.367	19752.01
214.441	19861.21
214.515	19945.16
214.588	20020.72
214.662	20066.07
214.736	20135.42
214.81	20218.01
214.883	20314.69
214.957	20392.28
215.031	20460.18
215.105	20505.57
215.178	20571.65
215.252	20634.68
215.326	20677.72
215.4	20732.13
215.473	20758.59
215.547	20809.39
215.621	20857.49
215.694	20936.96
215.768	20974.32
215.842	21023.82
215.915	21087.73
215.989	21135.64
216.063	21183.93
216.136	21246.06
216.21	21307.61
216.284	21371.13
216.357	21434.22
216.431	21491.97
216.504	21552.55
216.578	21647.71
216.652	21726.99
216.725	21785.36
216.799	21858.3
216.873	21919.03
216.946	21981.16
217.02	22023.48
217.093	22074.15
217.167	22100.42
217.24	22131.7
217.314	22184.68
217.387	22222.62
217.461	22254
217.535	22310.55
217.608	22345.98
217.682	22391.64
217.755	22449.97
217.829	22494.71
217.902	22536.6
217.976	22569.05
218.049	22604.72
218.123	22624.54
218.196	22672.65
218.27	22715.28
218.343	22744.49
218.417	22788.46
218.49	22833.35
218.563	22900.8
218.637	22938.7
218.71	23011.99
218.784	23060.89
218.857	23111.13
218.931	23157.27
219.004	23196.86
219.077	23231.09
219.151	23276.8
219.224	23311.04
219.298	23350.15
219.371	23405.03
219.444	23433.72
219.518	23483.05
219.591	23524.09
219.665	23588.18
219.738	23629.61
219.811	23650.34
219.885	23687.82
219.958	23736.96
220.031	23763.68
220.105	23793.1
220.178	23837.37
220.251	23862.16
220.325	23900.17
220.398	23932.77
220.471	23969.67
220.544	24012.69
220.618	24037.82
220.691	24064.93
220.764	24101.29
220.838	24134.62
220.911	24147.89
220.984	24198.58
221.057	24236.2
221.131	24266.93
221.204	24257.47
221.277	24301.18
221.35	24361.77
221.424	24376.62
221.497	24387.33
221.57	24413.96
221.643	24441.74
221.716	24472.81
221.79	24479.23
221.863	24493.17
221.936	24507.93
222.009	24534.37
222.082	24548.65
222.155	24562.69
222.229	24603.98
222.302	24623.38
222.375	24619.23
222.448	24633.84
222.521	24648.9
222.594	24658.06
222.667	24651.45
222.74	24671.76
222.814	24672.44
222.887	24673.98
222.96	24702.01
223.033	24726.52
223.106	24738.53
223.179	24757.59
223.252	24762.95
223.325	24785.58
223.398	24793.44
223.471	24798.51
223.544	24792.62
223.617	24797.83
223.69	24806.9
223.763	24791.94
223.837	24795.71
223.91	24805.98
223.983	24791.66
224.056	24785.19
224.129	24781.62
224.202	24810.66
224.275	24810.18
224.348	24792.28
224.42	24778.82
224.493	24762.13
224.566	24757.45
224.639	24768.64
224.712	24742.01
224.785	24715.57
224.858	24697.62
224.931	24689.9
225.004	24667.71
225.077	24666.65
225.15	24642.38
225.223	24638.57
225.296	24658.79
225.369	24634.95
225.442	24622.17
225.514	24623.42
225.587	24611.85
225.66	24610.4
225.733	24595.78
225.806	24580.25
225.879	24574.41
225.952	24543.83
226.025	24541.85
226.097	24542.47
226.17	24517.53
226.243	24496.79
226.316	24499.25
226.389	24495.34
226.461	24476.87
226.534	24481.4
226.607	24464.13
226.68	24486.13
226.753	24479.81
226.825	24432
226.898	24426.26
226.971	24424.33
227.044	24414.15
227.117	24401.66
227.189	24391.19
227.262	24384.77
227.335	24379.27
227.407	24352.79
227.48	24350.09
227.553	24335.23
227.626	24310.05
227.698	24297.46
227.771	24284.15
227.844	24263.79
227.916	24239.67
227.989	24218.45
228.062	24190.62
228.134	24206.01
228.207	24164.14
228.28	24124.68
228.352	24115.76
228.425	24092.51
228.498	24075.77
228.57	24048.52
228.643	24046.93
228.716	24020.02
228.788	23983.75
228.861	23961.75
228.934	23970.67
229.006	23957.56
229.079	23933.34
229.151	23908.6
229.224	23872.77
229.296	23869.05
229.369	23869.44
229.442	23866.64
229.514	23832.11
229.587	23832.21
229.659	23780.79
229.732	23773.56
229.804	23767.87
229.877	23773.03
229.949	23782.53
230.022	23793.77
230.094	23783.11
230.167	23749.74
230.239	23724.95
230.312	23712.8
230.384	23726.88
230.457	23693.27
230.529	23681.93
230.602	23670.41
230.674	23643.5
230.747	23643.11
230.819	23620.78
230.892	23568.12
230.964	23556.88
231.037	23551.77
231.109	23528.53
231.181	23521.34
231.254	23490.1
231.326	23462.85
231.399	23433.29
231.471	23397.7
231.544	23327.82
231.616	23312.58
231.688	23299.66
231.761	23262.44
231.833	23240.3
231.905	23179.25
231.978	23172.94
232.05	23138.41
232.122	23109.33
232.195	23081.42
232.267	23063.96
232.339	23030.64
232.412	23016.18
232.484	22972.01
232.556	22939.28
232.629	22942.99
232.701	22923.75
232.773	22897.23
232.846	22872.4
232.918	22839.42
232.99	22818.59
233.062	22813.58
233.135	22795.69
233.207	22748.44
233.279	22736.34
233.351	22701.92
233.424	22666.24
233.496	22609.4
233.568	22602.75
233.64	22554.73
233.713	22526.77
233.785	22489.5
233.857	22471.62
233.929	22431.94
234.001	22422.93
234.074	22406.88
234.146	22339.81
234.218	22300.33
234.29	22264.75
234.362	22225.61
234.434	22174.22
234.507	22120.62
234.579	22070.1
234.651	22022.71
234.723	21998.46
234.795	21975.9
234.867	21945.39
234.939	21936.57
235.012	21922.97
235.084	21887.25
235.156	21869.66
235.228	21836.21
235.3	21804.2
235.372	21776.58
235.444	21765.54
235.516	21712.95
235.588	21685.62
235.66	21650.82
235.732	21603.97
235.804	21636.89
235.876	21615.49
235.948	21602.57
236.02	21570.47
236.092	21541.94
236.164	21512.35
236.236	21474.42
236.308	21422.7
236.38	21391.9
236.452	21348.38
236.524	21316.81
236.596	21296.27
236.668	21261.09
236.74	21227.98
236.812	21195.25
236.884	21158.24
236.956	21115.72
237.028	21071.38
237.1	21025.7
237.172	21013.55
237.244	20999.24
237.316	20921.2
237.388	20876.76
237.46	20841.29
237.532	20814.45
237.604	20764.66
237.675	20742.44
237.747	20720.03
237.819	20678.54
237.891	20640.13
237.963	20588.56
238.035	20527.6
238.107	20446.44
238.178	20426.63
238.25	20386.54
238.322	20369.96
238.394	20309.43
238.466	20262.11
238.538	20234.64
238.609	20208.66
238.681	20152.03
238.753	20104.08
238.825	20067.55
238.897	20026.2
238.968	20003.22
239.04	19957.44
239.112	19941.87
239.184	19894.98
239.255	19857.05
239.327	19831.61
239.399	19794.45
239.471	19770.12
239.542	19745.15
239.614	19730.22
239.686	19673.4
239.758	19650.46
239.829	19596.53
239.901	19571.91
239.973	19534.32
240.044	19495.34
240.116	19450.71
240.188	19407.05
240.259	19374.91
240.331	19326.62
240.403	19299.83
240.474	19235.25
240.546	19189.23
240.618	19134.25
240.689	19084.47
240.761	19046.45
240.833	19030.25
240.904	18987.03
240.976	18946.21
241.048	18915.47
241.119	18892.34
241.191	18854.02
241.262	18834.94
241.334	18789.31
241.405	18749.74
241.477	18715.05
241.549	18674.13
241.62	18639.68
241.692	18612.64
241.763	18586.14
241.835	18558.67
241.906	18525.13
241.978	18478
242.049	18462.34
242.121	18441.9
242.192	18418.15
242.264	18367.69
242.335	18300.13
242.407	18276.13
242.478	18233.24
242.55	18199.07
242.621	18146.74
242.693	18113.44
242.764	18061.49
242.836	18031.13
242.907	18009.3
242.979	17975.85
243.05	17945.78
243.122	17911.13
243.193	17876.63
243.264	17819.52
243.336	17777.84
243.407	17750.22
243.479	17739.86
243.55	17702.03
243.622	17669.02
243.693	17632.44
243.764	17608.01
243.836	17564.54
243.907	17522.37
243.978	17494.46
244.05	17464.87
244.121	17416.87
244.192	17390.27
244.264	17339.43
244.335	17303.38
244.407	17242.51
244.478	17216.1
244.549	17179.57
244.62	17135.81
244.692	17091.09
244.763	17054.7
244.834	17010.07
244.906	16962.36
244.977	16931.37
245.048	16913.11
245.119	16874.55
245.191	16824.76
245.262	16773.48
245.333	16767.94
245.405	16736.23
245.476	16694.54
245.547	16656.22
245.618	16627.64
245.689	16593.62
245.761	16569.42
245.832	16532.94
245.903	16515.49
245.974	16481.85
246.045	16442.43
246.117	16421.12
246.188	16376.15
246.259	16343.33
246.33	16303.33
246.401	16269.92
246.473	16207.46
246.544	16163.12
246.615	16137.14
246.686	16105.91
246.757	16084.27
246.828	16033.66
246.899	16026.28
246.97	15985.36
247.042	15948.2
247.113	15930.56
247.184	15920.2
247.255	15879.57
247.326	15853.73
247.397	15810.26
247.468	15776.56
247.539	15746.82
247.61	15705.13
247.681	15687.68
247.752	15670.28
247.823	15632.15
247.894	15602.66
247.965	15567.95
248.037	15523.75
248.108	15470.97
248.179	15440.36
248.25	15405.32
248.321	15381.31
248.392	15327.57
248.463	15319.23
248.534	15289.49
248.605	15256.67
248.675	15218.59
248.746	15195.64
248.817	15174.77
248.888	15160.75
248.959	15112.49
249.03	15092.64
249.101	15064.82
249.172	15035.13
249.243	14976.37
249.314	14969.38
249.385	14939.54
249.456	14918.96
249.527	14893.8
249.598	14875.09
249.669	14848.24
249.739	14830.6
249.81	14806.3
249.881	14761.72
249.952	14730.38
250.023	14696.35
250.094	14644.43
250.165	14601
250.235	14565.91
250.306	14530.29
250.377	14485.7
250.448	14464.2
250.519	14413.44
250.59	14399.89
250.66	14358.1
250.731	14349.52
250.802	14320.88
250.873	14298.47
250.944	14278.17
251.014	14240.86
251.085	14247.18
251.156	14225.63
251.227	14211.41
251.297	14203.02
251.368	14192.22
251.439	14181.23
251.51	14169.33
251.58	14145.85
251.651	14114.13
251.722	14102.51
251.792	14064.38
251.863	14033.1
251.934	14027.41
252.005	14032.18
252.075	14007.5
252.146	14002.2
252.217	13993.47
252.287	13981.42
252.358	13961.32
252.429	13960.06
252.499	13934.32
252.57	13903.71
252.641	13890.98
252.711	13864.71
252.782	13816.07
252.852	13810.24
252.923	13775.96
252.994	13758.9
253.064	13755.48
253.135	13723.66
253.205	13696.33
253.276	13685.29
253.347	13686.78
253.417	13650.82
253.488	13623.49
253.558	13591.67
253.629	13563.95
253.699	13541.05
253.77	13520.32
253.841	13490.87
253.911	13469.18
253.982	13437.7
254.052	13423.04
254.123	13396
254.193	13371.17
254.264	13395.47
254.334	13357.14
254.405	13322.77
254.475	13281.36
254.546	13258.08
254.616	13257.74
254.687	13236.92
254.757	13227.28
254.827	13195.41
254.898	13186.25
254.968	13161.91
255.039	13133.03
255.109	13123.01
255.18	13091.91
255.25	13046.07
255.321	13032.38
255.391	12992.99
255.461	13011.31
255.532	12960.26
255.602	12936.59
255.673	12894.51
255.743	12854.11
255.813	12815.5
255.884	12808.61
255.954	12797.9
256.024	12791.49
256.095	12768.11
256.165	12737.55
256.235	12720.92
256.306	12698.89
256.376	12684.81
256.446	12673.05
256.517	12656.61
256.587	12644.52
256.657	12622.49
256.728	12603.83
256.798	12584.55
256.868	12556.93
256.938	12523.04
257.009	12507.81
257.079	12503.37
257.149	12511.66
257.219	12472.09
257.29	12459.31
257.36	12420.12
257.43	12415.83
257.5	12378.81
257.571	12348.83
257.641	12332.88
257.711	12296.82
257.781	12282.79
257.852	12265.34
257.922	12228.42
257.992	12207.84
258.062	12188.7
258.132	12180.75
258.202	12160.98
258.273	12137.99
258.343	12140.3
258.413	12109.31
258.483	12099.48
258.553	12059.95
258.623	12031.27
258.693	12018.74
258.764	12016.67
258.834	12021.44
258.904	11993.77
258.974	11956.08
259.044	11939.5
259.114	11931.78
259.184	11914.19
259.254	11894.19
259.324	11852.35
259.394	11838.85
259.464	11841.22
259.535	11815.67
259.605	11789.54
259.675	11763.9
259.745	11752.19
259.815	11726.02
259.885	11706.88
259.955	11723.71
260.025	11698.45
260.095	11683.8
260.165	11671.8
260.235	11671.32
260.305	11642.69
260.375	11617.29
260.445	11633.62
260.515	11636.9
260.585	11634.01
260.655	11620.8
260.725	11613.14
260.795	11606.97
260.865	11609.81
260.934	11585.62
261.004	11579.98
261.074	11567.93
261.144	11573.67
261.214	11568.61
261.284	11552.07
261.354	11547.21
261.424	11512.12
261.494	11517.85
261.564	11499.97
261.634	11488.45
261.703	11444.79
261.773	11434.28
