Data from 20250703_urea_0.1M_MAYP1162681_06-31-05-161.txt Node
Date: Fri Jul 04 06:31:05 BST 2025
User: adleo
Spectrometer: MAYP116268
Trigger mode: 0
Integration Time (sec): 1.000000E0
Scans to average: 1
Electric dark correction enabled: true
Nonlinearity correction enabled: true
Boxcar width: 10
XAxis mode: Wavelengths
Number of Pixels in Spectrum: 2068
>>>>>Begin Spectral Data<<<<<
179.565	1258.99
179.642	1317.85
179.718	1364.67
179.795	1402.51
179.871	1436.38
179.948	1454.03
180.024	1474.6
180.101	1499.26
180.177	1514.49
180.254	1539.68
180.33	1561.76
180.407	1619.31
180.483	1719.41
180.56	1812.11
180.636	1899.85
180.712	1886.77
180.789	1900.6
180.865	1916.72
180.942	1923.47
181.018	1934.97
181.095	1947.48
181.171	1953.28
181.248	1955.33
181.324	1969.79
181.4	1979.25
181.477	1990.42
181.553	2005.02
181.63	2025.56
181.706	2039.26
181.782	2048.34
181.859	2046.29
181.935	2053.43
182.011	2049.1
182.088	2066.03
182.164	2087.59
182.24	2102.57
182.317	2111.12
182.393	2105.51
182.469	2118.74
182.546	2134.81
182.622	2138.33
182.698	2132.86
182.775	2141.9
182.851	2157.08
182.927	2149.32
183.003	2144.52
183.08	2138.95
183.156	2150.61
183.232	2145.66
183.308	2136.15
183.385	2142.33
183.461	2163.6
183.537	2163.41
183.613	2175.82
183.69	2166.69
183.766	2154.41
183.842	2162.17
183.918	2168.87
183.995	2184.14
184.071	2187.19
184.147	2180.72
184.223	2168.74
184.299	2182.54
184.375	2170.22
184.452	2175.64
184.528	2229.18
184.604	2240.31
184.68	2250.78
184.756	2256.87
184.832	2267.39
184.908	2274.38
184.985	2274.28
185.061	2253.73
185.137	2264.53
185.213	2253.78
185.289	2254.78
185.365	2248.21
185.441	2245.31
185.517	2258.78
185.593	2253.98
185.669	2251.45
185.745	2264.87
185.822	2283.14
185.898	2271.29
185.974	2284.46
186.05	2276.37
186.126	2241.25
186.202	2235.06
186.278	2235.16
186.354	2224.21
186.43	2226.83
186.506	2222.88
186.582	2226.12
186.658	2235.63
186.734	2213.8
186.81	2216.08
186.886	2217.6
186.962	2231.3
187.038	2231.49
187.114	2223.78
187.19	2231.01
187.266	2217.93
187.341	2217.03
187.417	2208.7
187.493	2211.75
187.569	2212.89
187.645	2208.04
187.721	2193.85
187.797	2200.7
187.873	2203.84
187.949	2200.32
188.025	2193.95
188.101	2196.8
188.176	2197.28
188.252	2188.86
188.328	2197.04
188.404	2200.41
188.48	2196.75
188.556	2187.23
188.632	2183.9
188.707	2185.33
188.783	2186.52
188.859	2182.58
188.935	2171.11
189.011	2181.1
189.086	2173.44
189.162	2165.4
189.238	2159.26
189.314	2158.5
189.39	2153.36
189.465	2143.37
189.541	2155.89
189.617	2141.47
189.693	2137.19
189.768	2141.05
189.844	2169.51
189.92	2162.8
189.996	2170.84
190.071	2183.6
190.147	2186.59
190.223	2194.82
190.298	2184.07
190.374	2168.37
190.45	2184.49
190.526	2195.29
190.601	2188.39
190.677	2189.68
190.753	2218
190.828	2222.71
190.904	2236.75
190.98	2251.93
191.055	2264.07
191.131	2256.98
191.207	2278.43
191.282	2287.38
191.358	2280.43
191.433	2263.2
191.509	2274.56
191.585	2270.99
191.66	2273.71
191.736	2280.13
191.811	2272.52
191.887	2291.7
191.963	2314.16
192.038	2315.35
192.114	2315.35
192.189	2320.87
192.265	2319.87
192.34	2294.73
192.416	2294.21
192.491	2291.55
192.567	2293.59
192.642	2295.02
192.718	2293.31
192.793	2278.94
192.869	2276.08
192.944	2278.94
193.02	2288.46
193.095	2294.83
193.171	2300.92
193.246	2294.4
193.322	2290.31
193.397	2289.55
193.473	2274.03
193.548	2254.66
193.624	2260.37
193.699	2257.61
193.775	2273.7
193.85	2274.23
193.925	2284.27
194.001	2283.51
194.076	2273.75
194.152	2262.8
194.227	2257
194.302	2250.15
194.378	2257
194.453	2252.24
194.529	2264.9
194.604	2247.67
194.679	2238.3
194.755	2218.56
194.83	2234.74
194.905	2232.46
194.981	2243.22
195.056	2234.61
195.131	2246.22
195.207	2246.07
195.282	2237.32
195.357	2215.66
195.433	2235.03
195.508	2225.03
195.583	2232.93
195.659	2250.88
195.734	2257.4
195.809	2257.35
195.884	2267.96
195.96	2268.96
196.035	2287.28
196.11	2282.99
196.185	2297.46
196.261	2305.17
196.336	2337.29
196.411	2320.77
196.486	2325.2
196.561	2316.87
196.637	2326.14
196.712	2338.86
196.787	2340.19
196.862	2352.85
196.937	2366.6
197.013	2369.32
197.088	2380.79
197.163	2404.74
197.238	2418.7
197.313	2417.41
197.388	2430.41
197.464	2459.17
197.539	2467.31
197.614	2457.89
197.689	2471.03
197.764	2490.56
197.839	2510.08
197.914	2505.6
197.989	2529.65
198.065	2547.36
198.14	2602.69
198.215	2632.36
198.29	2645.7
198.365	2661.52
198.44	2675.85
198.515	2702.48
198.59	2715.73
198.665	2741.41
198.74	2748.7
198.815	2753.8
198.89	2778.38
198.965	2809.93
199.04	2809.03
199.115	2827.13
199.19	2872.87
199.265	2875.15
199.34	2883.97
199.415	2917.73
199.49	2934.79
199.565	2946.13
199.64	2968.87
199.715	2963.24
199.79	2971.92
199.865	2979.64
199.94	2979.59
200.015	3012.78
200.09	3016.02
200.165	3026.27
200.24	3032.04
200.315	3073.65
200.39	3087.25
200.464	3095.07
200.539	3096.02
200.614	3113.33
200.689	3138.8
200.764	3144.66
200.839	3164.97
200.914	3170.02
200.989	3160.48
201.063	3178.03
201.138	3158.3
201.213	3159.73
201.288	3138.99
201.363	3143.66
201.438	3143.09
201.512	3156.1
201.587	3134.78
201.662	3139.03
201.737	3150.19
201.812	3162.31
201.886	3128.18
201.961	3140.11
202.036	3130.57
202.111	3129.29
202.186	3097.78
202.26	3080.23
202.335	3058.72
202.41	3053.23
202.485	3037.83
202.559	3018.72
202.634	2991.97
202.709	3006.07
202.784	2987.34
202.858	2991.39
202.933	2973.41
203.008	2970.12
203.082	2954.2
203.157	2958.02
203.232	2920.47
203.306	2904.54
203.381	2873.93
203.456	2853.67
203.53	2834.11
203.605	2819.01
203.68	2803.03
203.754	2802.94
203.829	2798.7
203.904	2787.4
203.978	2785.88
204.053	2802.28
204.127	2801.8
204.202	2816.05
204.277	2809.28
204.351	2818.34
204.426	2826.83
204.5	2834.88
204.575	2815.2
204.65	2842.81
204.724	2855.92
204.799	2888.23
204.873	2907.64
204.948	2931.14
205.022	2949.49
205.097	2966.95
205.171	3009.19
205.246	3045.5
205.32	3077.81
205.395	3109.49
205.469	3136.52
205.544	3176.71
205.618	3193.64
205.693	3242.41
205.767	3268.32
205.842	3337.67
205.916	3374.8
205.991	3414.23
206.065	3468.37
206.14	3536.74
206.214	3589.05
206.289	3635.67
206.363	3701.01
206.438	3762.66
206.512	3830.08
206.586	3913.41
206.661	3988.48
206.735	4030.62
206.81	4102.32
206.884	4188.18
206.958	4242.77
207.033	4331.69
207.107	4417.18
207.181	4527.62
207.256	4601.65
207.33	4702.62
207.405	4792.77
207.479	4892
207.553	4979.66
207.628	5043.66
207.702	5140.17
207.776	5219.84
207.851	5308.76
207.925	5412.34
207.999	5494.02
208.073	5580.78
208.148	5671.8
208.222	5748.11
208.296	5876.16
208.371	5982.8
208.445	6090.48
208.519	6221.65
208.593	6330.25
208.668	6417.01
208.742	6516.15
208.816	6614.6
208.89	6728.01
208.965	6819.49
209.039	6933.11
209.113	7048.16
209.187	7172.21
209.261	7265.56
209.336	7389.8
209.41	7510.39
209.484	7612.61
209.558	7738.2
209.632	7855.32
209.707	7972.33
209.781	8102.81
209.855	8221.78
209.929	8347.24
210.003	8453.58
210.077	8549.05
210.151	8702.21
210.226	8834.57
210.3	8963.31
210.374	9092.88
210.448	9190.99
210.522	9305.43
210.596	9408.28
210.67	9522.73
210.744	9671.48
210.818	9805.01
210.892	9918.53
210.966	10015.24
211.041	10131.17
211.115	10226.84
211.189	10345.24
211.263	10453.83
211.337	10545.37
211.411	10645.58
211.485	10723.79
211.559	10824.15
211.633	10923.45
211.707	10982.29
211.781	11085.76
211.855	11143.93
211.929	11225.85
212.003	11305.17
212.077	11405.37
212.151	11508.55
212.225	11600.99
212.299	11678.55
212.373	11756.92
212.447	11842.04
212.52	11962.63
212.594	12048.24
212.668	12144.83
212.742	12217.18
212.816	12296.04
212.89	12377.89
212.964	12462.63
213.038	12545.93
213.112	12640.79
213.186	12740.86
213.26	12796.93
213.333	12836.16
213.407	12920.28
213.481	13000.83
213.555	13090.83
213.629	13156.25
213.703	13224.41
213.777	13307.23
213.85	13364.54
213.924	13469.73
213.998	13545.75
214.072	13610.54
214.146	13673.45
214.219	13748.27
214.293	13816.72
214.367	13892.74
214.441	13977.68
214.515	14048.78
214.588	14102.53
214.662	14137.05
214.736	14171.13
214.81	14244.21
214.883	14325.1
214.957	14380.87
215.031	14429.37
215.105	14470.34
215.178	14523.03
215.252	14569.26
215.326	14604.11
215.4	14644.12
215.473	14661.86
215.547	14701.49
215.621	14748.77
215.694	14807.53
215.768	14839.64
215.842	14891.46
215.915	14935.56
215.989	14960.82
216.063	14999.43
216.136	15055.39
216.21	15117.19
216.284	15194.26
216.357	15254.04
216.431	15297.32
216.504	15360.8
216.578	15445.93
216.652	15511.05
216.725	15568.94
216.799	15634.15
216.873	15694.69
216.946	15761.31
217.02	15812.21
217.093	15869.08
217.167	15892.55
217.24	15933.23
217.314	15979.17
217.387	16024.14
217.461	16065.25
217.535	16133.89
217.608	16174.57
217.682	16220.69
217.755	16273.76
217.829	16310.15
217.902	16360.37
217.976	16406.59
218.049	16444.62
218.123	16475.32
218.196	16530.21
218.27	16564.19
218.343	16602.56
218.417	16641.88
218.49	16689.5
218.563	16745.41
218.637	16785.7
218.71	16856.59
218.784	16915.49
218.857	16973.61
218.931	17015.73
219.004	17065.47
219.077	17111.83
219.151	17163.83
219.224	17216.56
219.298	17255.21
219.371	17318.34
219.444	17359.74
219.518	17415.45
219.591	17464.66
219.665	17533.33
219.738	17576.8
219.811	17616.08
219.885	17669.33
219.958	17724.94
220.031	17766.77
220.105	17826
220.178	17881.28
220.251	17920.6
220.325	17964.74
220.398	18009.37
220.471	18066.76
220.544	18112.06
220.618	18153.85
220.691	18203.53
220.764	18242.42
220.838	18299.09
220.911	18326.56
220.984	18388.63
221.057	18434.31
221.131	18477.35
221.204	18494.6
221.277	18551.85
221.35	18632.28
221.424	18667.55
221.497	18709.53
221.57	18747.02
221.643	18793.28
221.716	18840.56
221.79	18877.52
221.863	18921.03
221.936	18960.31
222.009	18995.2
222.082	19042.18
222.155	19077.94
222.229	19129.74
222.302	19172.05
222.375	19207.33
222.448	19259.32
222.521	19295.18
222.594	19330.55
222.667	19360.86
222.74	19403.27
222.814	19430.16
222.887	19451.65
222.96	19496.27
223.033	19532.56
223.106	19566.68
223.179	19592.85
223.252	19623.69
223.325	19648.84
223.398	19672.41
223.471	19702.58
223.544	19735.39
223.617	19760.69
223.69	19793.99
223.763	19796.79
223.837	19824.5
223.91	19851.15
223.983	19858.67
224.056	19861.61
224.129	19880.21
224.202	19913.31
224.275	19926.42
224.348	19935.43
224.42	19944.54
224.493	19944.73
224.566	19952.4
224.639	19986.52
224.712	19993.7
224.785	20006.03
224.858	20030.9
224.931	20044.01
225.004	20061.5
225.077	20075.33
225.15	20071
225.223	20078.47
225.296	20124.68
225.369	20119.67
225.442	20136.63
225.514	20151.33
225.587	20168.15
225.66	20191.76
225.733	20202.51
225.806	20222.9
225.879	20242.08
225.952	20240.34
226.025	20276.87
226.097	20321.4
226.17	20327.43
226.243	20330.08
226.316	20336.58
226.389	20354.41
226.461	20371.86
226.534	20375.86
226.607	20386.9
226.68	20418.75
226.753	20439.33
226.825	20428.63
226.898	20462.61
226.971	20461.98
227.044	20476.77
227.117	20496.05
227.189	20503.09
227.262	20526.99
227.335	20544.63
227.407	20556.78
227.48	20575.91
227.553	20581.02
227.626	20574.27
227.698	20587.91
227.771	20605.93
227.844	20603.33
227.916	20604.05
227.989	20601.02
228.062	20608.24
228.134	20637.88
228.207	20637.98
228.28	20625.59
228.352	20628.97
228.425	20629.45
228.498	20644.68
228.57	20642.37
228.643	20655.62
228.716	20654.61
228.788	20656.34
228.861	20646.37
228.934	20646.85
229.006	20650.99
229.079	20649.74
229.151	20639.23
229.224	20625.55
229.296	20627.43
229.369	20661.5
229.442	20679.33
229.514	20673.11
229.587	20688.15
229.659	20665.74
229.732	20671.86
229.804	20678.66
229.877	20704.06
229.949	20726.61
230.022	20752.25
230.094	20750.56
230.167	20748.59
230.239	20739.05
230.312	20727.24
230.384	20759.72
230.457	20763.48
230.529	20764.06
230.602	20756.73
230.674	20764.64
230.747	20770.13
230.819	20777.6
230.892	20742.32
230.964	20743.96
231.037	20753.6
231.109	20736.3
231.181	20736.64
231.254	20720.64
231.326	20722.37
231.399	20707.77
231.471	20682.66
231.544	20646.95
231.616	20662.27
231.688	20659.14
231.761	20648.58
231.833	20633.16
231.905	20592
231.978	20593.45
232.05	20589.5
232.122	20586.22
232.195	20563.43
232.267	20567.86
232.339	20547.62
232.412	20549.4
232.484	20524.77
232.556	20504.53
232.629	20529.06
232.701	20530.37
232.773	20524
232.846	20505.84
232.918	20498.56
232.99	20489.79
233.062	20486.36
233.135	20466.36
233.207	20441.3
233.279	20437.06
233.351	20424.53
233.424	20399.76
233.496	20373.55
233.568	20374.37
233.64	20348.34
233.713	20342.41
233.785	20320.97
233.857	20306.94
233.929	20273.45
234.001	20270.27
234.074	20265.11
234.146	20212.2
234.218	20194.51
234.29	20170.75
234.362	20147.96
234.434	20106.27
234.507	20076.06
234.579	20043.48
234.651	20016.01
234.723	20004.35
234.795	19998.23
234.867	19987
234.939	19998.08
235.012	19980.88
235.084	19966.66
235.156	19957.65
235.228	19922.23
235.3	19898.38
235.372	19886.28
235.444	19881.7
235.516	19838.14
235.588	19817.41
235.66	19813.32
235.732	19773.71
235.804	19820.5
235.876	19808.6
235.948	19801.71
236.02	19781.47
236.092	19760.74
236.164	19740.79
236.236	19712.65
236.308	19679.4
236.38	19652.03
236.452	19604.95
236.524	19584.42
236.596	19572.13
236.668	19552.51
236.74	19543.17
236.812	19529.67
236.884	19512.81
236.956	19489.48
237.028	19461.53
237.1	19442.06
237.172	19433.15
237.244	19428.43
237.316	19357.97
237.388	19332.57
237.46	19303.61
237.532	19291.47
237.604	19262.12
237.675	19245.98
237.747	19221.01
237.819	19185.84
237.891	19158.61
237.963	19136.63
238.035	19102.47
238.107	19027.34
238.178	19009.22
238.25	18967.97
238.322	18963.68
238.394	18911.88
238.466	18884.89
238.538	18859.11
238.609	18829.71
238.681	18772.32
238.753	18728.61
238.825	18699.17
238.897	18664.66
238.968	18644.57
239.04	18601.15
239.112	18584.33
239.184	18542.45
239.255	18515.37
239.327	18492.58
239.399	18468.53
239.471	18446.31
239.542	18419.81
239.614	18412.29
239.686	18354.8
239.758	18337.5
239.829	18287.82
239.901	18270.61
239.973	18233.22
240.044	18204.98
240.116	18169.85
240.188	18133.56
240.259	18104.4
240.331	18071.1
240.403	18048.69
240.474	18006.72
240.546	17969.37
240.618	17930.05
240.689	17900.36
240.761	17872.51
240.833	17856.07
240.904	17823.01
240.976	17788.27
241.048	17761.57
241.119	17744.61
241.191	17719.21
241.262	17715.79
241.334	17670.34
241.405	17633.57
241.477	17597.91
241.549	17564.71
241.62	17537.14
241.692	17524.56
241.763	17503.26
241.835	17463.65
241.906	17433.57
241.978	17381.04
242.049	17368.51
242.121	17348.85
242.192	17324.9
242.264	17274.54
242.335	17218.92
242.407	17195.02
242.478	17158.44
242.55	17122.19
242.621	17074.34
242.693	17036.07
242.764	16981.66
242.836	16944.26
242.907	16919.44
242.979	16894.14
243.05	16870.91
243.122	16837.22
243.193	16789.46
243.264	16731.77
243.336	16700.35
243.407	16675.04
243.479	16674.32
243.55	16647.91
243.622	16613.45
243.693	16582.08
243.764	16573.88
243.836	16541.45
243.907	16502.74
243.978	16466.45
244.05	16437.44
244.121	16389.05
244.192	16364.85
244.264	16323.69
244.335	16293.28
244.407	16236.5
244.478	16204.11
244.549	16165.07
244.62	16119.38
244.692	16095.57
244.763	16078.8
244.834	16041.97
244.906	15998.5
244.977	15963.02
245.048	15935.21
245.119	15896.85
245.191	15851.54
245.262	15793.65
245.333	15778.85
245.405	15740.15
245.476	15715.91
245.547	15686.12
245.618	15664.09
245.689	15638.64
245.761	15605.57
245.832	15578.92
245.903	15567.74
245.974	15543.88
246.045	15504.69
246.117	15494.52
246.188	15441.26
246.259	15395.66
246.33	15361.67
246.401	15329.38
246.473	15280.7
246.544	15243.1
246.615	15221.94
246.686	15188.82
246.757	15169.83
246.828	15120.9
246.899	15111.02
246.97	15064.17
247.042	15026.09
247.113	15008.4
247.184	15003
247.255	14973.6
247.326	14945.25
247.397	14905.68
247.468	14880.03
247.539	14859.11
247.61	14811.78
247.681	14801.03
247.752	14791.63
247.823	14759.28
247.894	14731.85
247.965	14696.23
248.037	14656.03
248.108	14610.67
248.179	14574.22
248.25	14536.62
248.321	14515.99
248.392	14475.16
248.463	14467.69
248.534	14437.32
248.605	14413.37
248.675	14375.33
248.746	14347.33
248.817	14328.81
248.888	14308.81
248.959	14259.69
249.03	14239.01
249.101	14204.2
249.172	14172.39
249.243	14114.83
249.314	14102.54
249.385	14075.64
249.456	14052.45
249.527	14023.72
249.598	14000.29
249.669	13977.87
249.739	13962.01
249.81	13943.02
249.881	13901.71
249.952	13880.06
250.023	13855.53
250.094	13804.77
250.165	13762.39
250.235	13733.76
250.306	13703.63
250.377	13668.25
250.448	13645.4
250.519	13600.03
250.59	13593.96
250.66	13566.82
250.731	13566.34
250.802	13534.42
250.873	13508.92
250.944	13492.29
251.014	13471.56
251.085	13473.3
251.156	13459.03
251.227	13445.48
251.297	13435.75
251.368	13426.1
251.439	13408.75
251.51	13394.38
251.58	13368.64
251.651	13343.96
251.722	13337.11
251.792	13296.96
251.863	13267.99
251.934	13264.47
252.005	13276.42
252.075	13251.6
252.146	13236.94
252.217	13224.26
252.287	13210.67
252.358	13192.5
252.429	13188.25
252.499	13149.88
252.57	13123.8
252.641	13106.69
252.711	13079.89
252.782	13035.34
252.852	13037.66
252.923	13011.53
252.994	12990.37
253.064	12978.27
253.135	12946.55
253.205	12908.61
253.276	12899.02
253.347	12893.04
253.417	12863.34
253.488	12832.44
253.558	12813.74
253.629	12789.98
253.699	12767.94
253.77	12757.44
253.841	12731.55
253.911	12705.23
253.982	12689.03
254.052	12676.07
254.123	12662.33
254.193	12643.33
254.264	12661.07
254.334	12618.22
254.405	12582.74
254.475	12551.65
254.546	12530.73
254.616	12528.85
254.687	12520.65
254.757	12509.47
254.827	12490.04
254.898	12471.63
254.968	12441.6
255.039	12406.46
255.109	12395.23
255.18	12363.36
255.25	12317.57
255.321	12306.87
255.391	12267.54
255.461	12267.54
255.532	12220.49
255.602	12194.99
255.673	12148.67
255.743	12114.01
255.813	12073.04
255.884	12061.66
255.954	12044.31
256.024	12044.46
256.095	12020.69
256.165	11989.36
256.235	11972.54
256.306	11944.77
256.376	11929.59
256.446	11927.04
256.517	11921.73
256.587	11906.94
256.657	11890.74
256.728	11874.06
256.798	11855.27
256.868	11839.26
256.938	11812.95
257.009	11808.13
257.079	11793.09
257.149	11810.97
257.219	11773.61
257.29	11765.23
257.36	11730.29
257.43	11727.06
257.5	11688.01
257.571	11664.73
257.641	11651.14
257.711	11614.13
257.781	11601.69
257.852	11593.88
257.922	11553.64
257.992	11526.6
258.062	11508.33
258.132	11502.74
258.202	11479.8
258.273	11463.12
258.343	11468.57
258.413	11441.97
258.483	11416.71
258.553	11387.89
258.623	11355.07
258.693	11344.61
258.764	11338.06
258.834	11334.88
258.904	11318.63
258.974	11288.47
259.044	11271.65
259.114	11258.92
259.184	11250.83
259.254	11230.15
259.324	11191.6
259.394	11178.97
259.464	11179.02
259.535	11159.45
259.605	11133.57
259.675	11114.78
259.745	11098.2
259.815	11060.61
259.885	11033.43
259.955	11045.05
260.025	11016.09
260.095	10994.84
260.165	10982.26
260.235	10981.05
260.305	10959.13
260.375	10926.74
260.445	10936.86
260.515	10940.48
260.585	10936.43
260.655	10915.32
260.725	10906.6
260.795	10897.88
260.865	10906.65
260.934	10881.4
261.004	10873.73
261.074	10854.27
261.144	10852.92
261.214	10846.61
261.284	10835.52
261.354	10833.11
261.424	10807.04
261.494	10812.15
261.564	10798.7
261.634	10785.79
261.703	10751.24
261.773	10745.65
261.843	10742.9
261.913	10720.64
261.983	10681.13
