Data from 20250703_urea_0.1M_MAYP1162681_13-21-05-115.txt Node
Date: Thu Jul 03 13:21:05 BST 2025
User: adleo
Spectrometer: MAYP116268
Trigger mode: 0
Integration Time (sec): 1.000000E0
Scans to average: 1
Electric dark correction enabled: true
Nonlinearity correction enabled: true
Boxcar width: 10
XAxis mode: Wavelengths
Number of Pixels in Spectrum: 2068
>>>>>Begin Spectral Data<<<<<
179.565	1213.81
179.642	1272.18
179.718	1317.73
179.795	1354.64
179.871	1386.56
179.948	1404.95
180.024	1426.63
180.101	1448.96
180.177	1464.04
180.254	1486.46
180.33	1508.12
180.407	1564.57
180.483	1661.54
180.56	1753.8
180.636	1837.36
180.712	1822.15
180.789	1829.7
180.865	1840.54
180.942	1848.09
181.018	1857.7
181.095	1870.2
181.171	1878.42
181.248	1881.71
181.324	1894.64
181.4	1901.91
181.477	1911.37
181.553	1924.59
181.63	1945.89
181.706	1958.92
181.782	1968.85
181.859	1968.71
181.935	1975.61
182.011	1967.43
182.088	1982.41
182.164	1999.91
182.24	2012.51
182.317	2023.06
182.393	2023.16
182.469	2039.19
182.546	2054.31
182.622	2059.35
182.698	2055.54
182.775	2068.15
182.851	2078.04
182.927	2073.09
183.003	2065.77
183.08	2062.83
183.156	2069.72
183.232	2063.35
183.308	2054.93
183.385	2059.54
183.461	2076.76
183.537	2078.33
183.613	2093.36
183.69	2085.75
183.766	2074.8
183.842	2084.94
183.918	2089.74
183.995	2103.01
184.071	2104.48
184.147	2097.35
184.223	2087.13
184.299	2099.88
184.375	2087.8
184.452	2095.7
184.528	2143.17
184.604	2156.68
184.68	2167.71
184.756	2175.89
184.832	2183.41
184.908	2187.64
184.985	2189.31
185.061	2173.99
185.137	2179.99
185.213	2167.52
185.289	2168.76
185.365	2163.05
185.441	2161.67
185.517	2174
185.593	2169.57
185.669	2167.39
185.745	2179.99
185.822	2196.21
185.898	2184.27
185.974	2193.92
186.05	2185.79
186.126	2153.58
186.202	2148.21
186.278	2145.35
186.354	2138.93
186.43	2145.16
186.506	2145.78
186.582	2143.12
186.658	2148.21
186.734	2128.8
186.81	2132.61
186.886	2136.36
186.962	2147.45
187.038	2144.83
187.114	2136.55
187.19	2145.35
187.266	2136.36
187.341	2134.89
187.417	2128.42
187.493	2131.79
187.569	2132.41
187.645	2127.37
187.721	2114.24
187.797	2119.9
187.873	2123.28
187.949	2115.86
188.025	2108.72
188.101	2110.57
188.176	2115.8
188.252	2112.57
188.328	2120.94
188.404	2121.94
188.48	2115.42
188.556	2109.86
188.632	2106.57
188.707	2108.81
188.783	2105.95
188.859	2100.25
188.935	2089.97
189.011	2097.39
189.086	2090.69
189.162	2082.65
189.238	2077.18
189.314	2074.57
189.39	2071.71
189.465	2064.1
189.541	2081.56
189.617	2065.44
189.693	2060.87
189.768	2065.01
189.844	2091.42
189.92	2084.2
189.996	2091.71
190.071	2102.18
190.147	2100.56
190.223	2113.6
190.298	2107.41
190.374	2092.14
190.45	2106.27
190.526	2116.4
190.601	2110.55
190.677	2112.64
190.753	2141.29
190.828	2148.42
190.904	2164.03
190.98	2177.83
191.055	2188.15
191.131	2177.44
191.207	2199.04
191.282	2203.8
191.358	2194.8
191.433	2175.91
191.509	2187.32
191.585	2184.42
191.66	2185.7
191.736	2193.55
191.811	2182.13
191.887	2196.98
191.963	2220.58
192.038	2223.34
192.114	2222.15
192.189	2224.38
192.265	2221.29
192.34	2200.59
192.416	2198.3
192.491	2193.64
192.567	2195.54
192.642	2199.64
192.718	2199.87
192.793	2186.6
192.869	2182.99
192.944	2185.22
193.02	2195.5
193.095	2199.21
193.171	2204.92
193.246	2203.21
193.322	2199.78
193.397	2201.11
193.473	2188.74
193.548	2172.18
193.624	2178.27
193.699	2177.46
193.775	2194.79
193.85	2196.59
193.925	2204.02
194.001	2202.07
194.076	2197.45
194.152	2188.74
194.227	2180.7
194.302	2171.85
194.378	2174.66
194.453	2175.99
194.529	2188.22
194.604	2172.99
194.679	2167.1
194.755	2148.74
194.83	2162.44
194.905	2161.26
194.981	2168.2
195.056	2160.02
195.131	2167.25
195.207	2165.44
195.282	2157.21
195.357	2135.61
195.433	2151.93
195.508	2140.46
195.583	2147.59
195.659	2159.97
195.734	2164.25
195.809	2164.54
195.884	2171.48
195.96	2173.05
196.035	2187.23
196.11	2185.75
196.185	2197.5
196.261	2203.68
196.336	2235.09
196.411	2221.76
196.486	2229.71
196.561	2224.47
196.637	2234.94
196.712	2252.36
196.787	2254.69
196.862	2269.35
196.937	2280.24
197.013	2282.57
197.088	2292.99
197.163	2315.32
197.238	2331.99
197.313	2331.9
197.388	2345.7
197.464	2380.12
197.539	2394.45
197.614	2387.64
197.689	2397.73
197.764	2414.02
197.839	2432.63
197.914	2425.73
197.989	2447.24
198.065	2458.58
198.14	2508.74
198.215	2534.36
198.29	2544.08
198.365	2559.41
198.44	2571.51
198.515	2601.7
198.59	2619.61
198.665	2645.52
198.74	2656.19
198.815	2656.96
198.89	2684.2
198.965	2715.84
199.04	2708.93
199.115	2721.17
199.19	2766.76
199.265	2769.05
199.34	2779.15
199.415	2813.81
199.49	2836.86
199.565	2844.82
199.64	2869.27
199.715	2865.93
199.79	2873.65
199.865	2879.32
199.94	2878.89
200.015	2911.21
200.09	2915.07
200.165	2923.08
200.24	2929.23
200.315	2968.88
200.39	2986.28
200.464	2987.14
200.539	2987.62
200.614	3006.11
200.689	3032.47
200.764	3038.82
200.839	3059.83
200.914	3068.61
200.989	3058.87
201.063	3074.66
201.138	3059.03
201.213	3060.13
201.288	3044.01
201.363	3047.54
201.438	3049.97
201.512	3064.03
201.587	3046.01
201.662	3052.4
201.737	3062.74
201.812	3074.14
201.886	3042.31
201.961	3052.14
202.036	3046.37
202.111	3042.7
202.186	3013.82
202.26	2996.23
202.335	2973.67
202.41	2969.81
202.485	2950.56
202.559	2934.16
202.634	2909.08
202.709	2924.76
202.784	2907.69
202.858	2910.17
202.933	2896.39
203.008	2893.96
203.082	2882.67
203.157	2889.06
203.232	2852.99
203.306	2843.64
203.381	2820.09
203.456	2808.5
203.53	2795.48
203.605	2788.19
203.68	2777.47
203.754	2791.13
203.829	2794.66
203.904	2794.66
203.978	2802.24
204.053	2831.94
204.127	2841.43
204.202	2867.41
204.277	2877.04
204.351	2905.46
204.426	2932.6
204.5	2960.78
204.575	2965.59
204.65	3014.4
204.724	3047.13
204.799	3102.34
204.873	3144.91
204.948	3194.24
205.022	3233.64
205.097	3281.91
205.171	3354.93
205.246	3423.73
205.32	3486.68
205.395	3554.74
205.469	3616.74
205.544	3695.58
205.618	3754.97
205.693	3850.15
205.767	3921.98
205.842	4032.18
205.916	4114.27
205.991	4199.79
206.065	4306.27
206.14	4423.17
206.214	4525.43
206.289	4631.18
206.363	4755.03
206.438	4872.47
206.512	5002.9
206.586	5146.21
206.661	5280.89
206.735	5390.38
206.81	5531.03
206.884	5679.16
206.958	5808.92
207.033	5968.45
207.107	6124.35
207.181	6305.44
207.256	6445.75
207.33	6619.54
207.405	6788.95
207.479	6970.71
207.553	7139.13
207.628	7283.11
207.702	7460.25
207.776	7624.86
207.851	7798.33
207.925	7982.15
207.999	8157.04
208.073	8324.87
208.148	8507.72
208.222	8674.36
208.296	8887.82
208.371	9084.34
208.445	9276.61
208.519	9490.61
208.593	9684.65
208.668	9867.87
208.742	10053.42
208.816	10251.75
208.89	10459.73
208.965	10652.89
209.039	10856.86
209.113	11065.87
209.187	11284.95
209.261	11479.15
209.336	11686.85
209.41	11900.36
209.484	12101.68
209.558	12320.11
209.632	12533.73
209.707	12740.46
209.781	12964.16
209.855	13164.1
209.929	13379.29
210.003	13575.43
210.077	13755.37
210.151	13997.5
210.226	14217.98
210.3	14434.65
210.374	14643.76
210.448	14834.59
210.522	15018.78
210.596	15203.68
210.67	15391.48
210.744	15617.15
210.818	15826.44
210.892	16027.77
210.966	16201.57
211.041	16393.64
211.115	16565.75
211.189	16759.12
211.263	16939.03
211.337	17112.3
211.411	17300.4
211.485	17462.67
211.559	17648.12
211.633	17820.85
211.707	17954.72
211.781	18123.3
211.855	18255.58
211.929	18410.81
212.003	18549.12
212.077	18716.2
212.151	18888.96
212.225	19057.53
212.299	19194.64
212.373	19334.53
212.447	19475.06
212.52	19654.09
212.594	19806.52
212.668	19960.11
212.742	20080.83
212.816	20209.5
212.89	20338.37
212.964	20476.64
213.038	20601.8
213.112	20747.45
213.186	20891.99
213.26	21003.51
213.333	21095.47
213.407	21232.25
213.481	21359.25
213.555	21489.14
213.629	21599.47
213.703	21691.53
213.777	21805.05
213.85	21907.49
213.924	22043.62
213.998	22164.04
214.072	22256.17
214.146	22332.15
214.219	22426.54
214.293	22527.29
214.367	22634.7
214.441	22746.03
214.515	22836.19
214.588	22923.07
214.662	22982.43
214.736	23063.38
214.81	23164.77
214.883	23265.21
214.957	23336.14
215.031	23418.41
215.105	23481.96
215.178	23558.58
215.252	23644.28
215.326	23703.64
215.4	23764.99
215.473	23804.49
215.547	23853.59
215.621	23921.89
215.694	24004.56
215.768	24056.4
215.842	24121.9
215.915	24192.04
215.989	24232.07
216.063	24283.84
216.136	24338.78
216.21	24395.7
216.284	24470.86
216.357	24528.94
216.431	24588.67
216.504	24660.02
216.578	24735.63
216.652	24807.03
216.725	24859.52
216.799	24921.52
216.873	24966.3
216.946	25024.19
217.02	25070.8
217.093	25124.41
217.167	25155.53
217.24	25191.72
217.314	25241.71
217.387	25282.82
217.461	25319.74
217.535	25378.71
217.608	25411.04
217.682	25453.99
217.755	25515.96
217.829	25544.72
217.902	25580.34
217.976	25604.09
218.049	25633.82
218.123	25658.2
218.196	25712.06
218.27	25736.2
218.343	25751.35
218.417	25787.02
218.49	25828.15
218.563	25880.33
218.637	25920.05
218.71	25971.85
218.784	26013.85
218.857	26061.11
218.931	26096.73
219.004	26126.57
219.077	26159.78
219.151	26192.22
219.224	26214.28
219.298	26227.56
219.371	26258.27
219.444	26278.2
219.518	26308.18
219.591	26334.06
219.665	26369.65
219.738	26381
219.811	26413.92
219.885	26451.1
219.958	26498.08
220.031	26503.87
220.105	26530.24
220.178	26546.42
220.251	26552.69
220.325	26569.59
220.398	26581.62
220.471	26606.53
220.544	26634.44
220.618	26635.46
220.691	26660.08
220.764	26682.25
220.838	26714.07
220.911	26730.34
220.984	26770.71
221.057	26790.56
221.131	26790.27
221.204	26777.18
221.277	26799.16
221.35	26830.89
221.424	26828.42
221.497	26819.68
221.57	26826.49
221.643	26829.2
221.716	26838.37
221.79	26832.38
221.863	26834.36
221.936	26837.17
222.009	26831.61
222.082	26826.78
222.155	26836.15
222.229	26844.75
222.302	26852.09
222.375	26837.65
222.448	26845.62
222.521	26827.99
222.594	26819.25
222.667	26806.84
222.74	26816.06
222.814	26815.1
222.887	26801.19
222.96	26803.26
223.033	26809.01
223.106	26810.8
223.179	26809.45
223.252	26795.83
223.325	26802.59
223.398	26791.14
223.471	26781.19
223.544	26777.33
223.617	26772.41
223.69	26755.84
223.763	26727.54
223.837	26711.95
223.91	26714.46
223.983	26672.54
224.056	26651.73
224.129	26636.67
224.202	26639.56
224.275	26615.76
224.348	26573.65
224.42	26550.71
224.493	26521.31
224.566	26494.41
224.639	26469.01
224.712	26441.83
224.785	26418.46
224.858	26384.37
224.931	26361.15
225.004	26320.11
225.077	26292.26
225.15	26234.03
225.223	26209.65
225.296	26220.37
225.369	26181.56
225.442	26141.39
225.514	26118.55
225.587	26097.8
225.66	26080.27
225.733	26054.2
225.806	26036.39
225.879	26013.65
225.952	25964.85
226.025	25957.13
226.097	25945.1
226.17	25924.49
226.243	25867.63
226.316	25847.94
226.389	25831.09
226.461	25812.17
226.534	25797.88
226.607	25768.68
226.68	25769.55
226.753	25756.57
226.825	25707.9
226.898	25694.78
226.971	25664.56
227.044	25645.45
227.117	25613.31
227.189	25584.74
227.262	25566.78
227.335	25529.09
227.407	25502.06
227.48	25485.27
227.553	25447.24
227.626	25409.15
227.698	25381.74
227.771	25366.78
227.844	25318.87
227.916	25293.67
227.989	25256.56
228.062	25222.69
228.134	25206.33
228.207	25177.67
228.28	25133.61
228.352	25092.54
228.425	25058.57
228.498	25040.04
228.57	24999.47
228.643	24986.25
228.716	24951.46
228.788	24908.9
228.861	24875.66
228.934	24852.74
229.006	24823.5
229.079	24790.6
229.151	24751.85
229.224	24702.5
229.296	24674.42
229.369	24669.4
229.442	24648.51
229.514	24594.82
229.587	24578.71
229.659	24536.26
229.732	24496.6
229.804	24477.21
229.877	24473.49
229.949	24457.86
230.022	24445.27
230.094	24412.86
230.167	24374.07
230.239	24327.33
230.312	24295.49
230.384	24285.32
230.457	24257.63
230.529	24225.55
230.602	24194.82
230.674	24165.84
230.747	24150.84
230.819	24129.13
230.892	24073.52
230.964	24029.72
231.037	24018.58
231.109	23975.07
231.181	23952.26
231.254	23913.78
231.326	23866.85
231.399	23821.41
231.471	23782.68
231.544	23723.11
231.616	23702.28
231.688	23680.91
231.761	23650.24
231.833	23613.5
231.905	23551.09
231.978	23513.96
232.05	23477.41
232.122	23446.83
232.195	23410.04
232.267	23379.18
232.339	23342.04
232.412	23316.05
232.484	23287.7
232.556	23237.36
232.629	23231.81
232.701	23197.82
232.773	23161.66
232.846	23128.53
232.918	23090.24
232.99	23050.17
233.062	23017.92
233.135	22981.85
233.207	22926.26
233.279	22891.54
233.351	22857.7
233.424	22830.7
233.496	22780.75
233.568	22761.22
233.64	22713.01
233.713	22665.14
233.785	22630.57
233.857	22596.14
233.929	22542.78
234.001	22511.25
234.074	22487.19
234.146	22419.6
234.218	22380.64
234.29	22344.15
234.362	22296.33
234.434	22235.3
234.507	22182.22
234.579	22133.39
234.651	22091.45
234.723	22053.95
234.795	22029.6
234.867	21995.33
234.939	21966.99
235.012	21933.15
235.084	21893.91
235.156	21846.67
235.228	21808.4
235.3	21761.25
235.372	21728.86
235.444	21701.24
235.516	21633.66
235.588	21601.37
235.66	21566.95
235.732	21523.72
235.804	21544.69
235.876	21516.54
235.948	21501.26
236.02	21467.38
236.092	21421.54
236.164	21388.28
236.236	21345.48
236.308	21298.01
236.38	21255.11
236.452	21198.72
236.524	21160.93
236.596	21136.11
236.668	21116.74
236.74	21087.63
236.812	21052.88
236.884	21013.64
236.956	20986.46
237.028	20943.47
237.1	20891.47
237.172	20872.05
237.244	20850.41
237.316	20771.41
237.388	20727.65
237.46	20680.56
237.532	20652.37
237.604	20610.06
237.675	20579.55
237.747	20546.87
237.819	20505.33
237.891	20466.15
237.963	20424.8
238.035	20371.99
238.107	20291.84
238.178	20260.37
238.25	20208.37
238.322	20182.78
238.394	20120.71
238.466	20073.67
238.538	20047.17
238.609	20011.41
238.681	19938.93
238.753	19881.54
238.825	19832.96
238.897	19790.17
238.968	19761.06
239.04	19707.47
239.112	19699.18
239.184	19641.93
239.255	19606.08
239.327	19557.65
239.399	19515.96
239.471	19486.76
239.542	19459.68
239.614	19434.18
239.686	19366.81
239.758	19346.09
239.829	19307.92
239.901	19284.84
239.973	19244.12
240.044	19201.71
240.116	19167.74
240.188	19128.51
240.259	19091.41
240.331	19055.17
240.403	19027.6
240.474	18970.69
240.546	18930.12
240.618	18865.01
240.689	18833.16
240.761	18785.74
240.833	18773.93
240.904	18735.72
240.976	18687.34
241.048	18647.58
241.119	18618.57
241.191	18585.85
241.262	18555.3
241.334	18506.86
241.405	18460.8
241.477	18414.19
241.549	18375.16
241.62	18333.43
241.692	18305.72
241.763	18277.91
241.835	18234.88
241.906	18194.11
241.978	18145.1
242.049	18117.92
242.121	18102.31
242.192	18076.72
242.264	18033.3
242.335	17966.65
242.407	17932.34
242.478	17900.1
242.55	17868.05
242.621	17832.77
242.693	17791.91
242.764	17752.82
242.836	17706.75
242.907	17669.5
242.979	17635.91
243.05	17596.39
243.122	17559.57
243.193	17523.48
243.264	17461.31
243.336	17420.68
243.407	17387.04
243.479	17372.54
243.55	17330.27
243.622	17288.34
243.693	17233.6
243.764	17214.51
243.836	17175.38
243.907	17134.41
243.978	17090.46
244.05	17061.4
244.121	16998.99
244.192	16967.37
244.264	16909.49
244.335	16880.62
244.407	16835.8
244.478	16807.12
244.549	16774.83
244.62	16735.65
244.692	16698.44
244.763	16675.07
244.834	16635.55
244.906	16595.01
244.977	16565.47
245.048	16559.21
245.119	16511.68
245.191	16476.55
245.262	16415.34
245.333	16398.13
245.405	16367.29
245.476	16338.22
245.547	16298.85
245.618	16270.26
245.689	16241.49
245.761	16209.39
245.832	16169.14
245.903	16145.05
245.974	16117.86
246.045	16080.99
246.117	16060.51
246.188	16013.17
246.259	15966.32
246.33	15923.04
246.401	15895.76
246.473	15842.5
246.544	15787.41
246.615	15768.8
246.686	15727.93
246.757	15709.52
246.828	15660.31
246.899	15647.82
246.97	15597.07
247.042	15557.16
247.113	15538.36
247.184	15524.81
247.255	15487.55
247.326	15452.61
247.397	15417.76
247.468	15383.05
247.539	15357.51
247.61	15311.91
247.681	15290.51
247.752	15277.3
247.823	15243.8
247.894	15207.02
247.965	15174.96
248.037	15146.33
248.108	15103.48
248.179	15076
248.25	15044.86
248.321	15020.81
248.392	14975.65
248.463	14969.52
248.534	14936.46
248.605	14907.58
248.675	14881.94
248.746	14860.92
248.817	14842.89
248.888	14818.36
248.959	14761.81
249.03	14739.83
249.101	14713.42
249.172	14679.72
249.243	14623.37
249.314	14613.44
249.385	14591.27
249.456	14554.82
249.527	14518.77
249.598	14496.11
249.669	14467.81
249.739	14440.63
249.81	14424.14
249.881	14378.49
249.952	14361.23
250.023	14332.65
250.094	14290.9
250.165	14244.62
250.235	14215.7
250.306	14193.96
250.377	14152.74
250.448	14136.83
250.519	14085.88
250.59	14069.49
250.66	14040.28
250.731	14030.97
250.802	14006.24
250.873	13980.5
250.944	13963
251.014	13931.14
251.085	13923.33
251.156	13904.29
251.227	13891.8
251.297	13877.44
251.368	13865
251.439	13839.31
251.51	13830.92
251.58	13804.55
251.651	13777.26
251.722	13764.01
251.792	13713.44
251.863	13690.2
251.934	13691.02
252.005	13693.96
252.075	13670.87
252.146	13660.7
252.217	13653.66
252.287	13638.43
252.358	13607.24
252.429	13603.24
252.499	13571.18
252.57	13542.21
252.641	13530.4
252.711	13505.04
252.782	13456.55
252.852	13454.18
252.923	13435.53
252.994	13411.52
253.064	13401.74
253.135	13373.49
253.205	13341.38
253.276	13335.16
253.347	13334.25
253.417	13302.43
253.488	13270.08
253.558	13239.47
253.629	13211.8
253.699	13191.12
253.77	13172.66
253.841	13145.95
253.911	13122.23
253.982	13110.76
254.052	13095.77
254.123	13068.68
254.193	13047.08
254.264	13067.52
254.334	13034.11
254.405	12993.76
254.475	12956.45
254.546	12930.95
254.616	12923.82
254.687	12909.07
254.757	12894.03
254.827	12861.44
254.898	12835.84
254.968	12814.78
255.039	12784.21
255.109	12774.86
255.18	12736.49
255.25	12691.76
255.321	12682.74
255.391	12648.66
255.461	12644.56
255.532	12603.54
255.602	12583.34
255.673	12545.36
255.743	12514.7
255.813	12466.59
255.884	12457
255.954	12445.58
256.024	12440.03
256.095	12411.98
256.165	12375.15
256.235	12359.96
256.306	12335.53
256.376	12326.7
256.446	12312.39
256.517	12307.81
256.587	12298.51
256.657	12288.38
256.728	12269.78
256.798	12247.6
256.868	12225.33
256.938	12196.75
257.009	12188.8
257.079	12169.03
257.149	12175.25
257.219	12134.71
257.29	12124.73
257.36	12084.44
257.43	12074.17
257.5	12036.67
257.571	12018.35
257.641	12007.85
257.711	11969.43
257.781	11956.95
257.852	11938.44
257.922	11903.88
257.992	11877.51
258.062	11847.05
258.132	11837.45
258.202	11822.46
258.273	11808
258.343	11809.84
258.413	11780.1
258.483	11754.6
258.553	11721.78
258.623	11693.92
258.693	11682.2
258.764	11678.06
258.834	11672.66
258.904	11655.12
258.974	11624.51
259.044	11600.7
259.114	11585.86
259.184	11577.66
259.254	11560.12
259.324	11527.68
259.394	11520.79
259.464	11527.39
259.535	11509.18
259.605	11478.86
259.675	11449.9
259.745	11428.21
259.815	11392.49
259.885	11368.78
259.955	11379.39
260.025	11363
260.095	11343
260.165	11328.93
260.235	11330.03
260.305	11309.7
260.375	11284.54
260.445	11295.24
260.515	11293.65
260.585	11291.86
260.655	11273.02
260.725	11259.09
260.795	11248.83
260.865	11249.79
260.934	11211.14
261.004	11198.08
261.074	11179.57
261.144	11183.04
261.214	11183.43
261.284	11172.34
261.354	11176.2
261.424	11146.03
261.494	11144.68
261.564	11123.09
261.634	11115.14
261.703	11075.96
261.773	11064.68
261.843	11056.59
