Data from 20250703_urea_0.1M_MAYP1162681_00-11-04-989.txt Node
Date: Fri Jul 04 00:11:04 BST 2025
User: adleo
Spectrometer: MAYP116268
Trigger mode: 0
Integration Time (sec): 1.000000E0
Scans to average: 1
Electric dark correction enabled: true
Nonlinearity correction enabled: true
Boxcar width: 10
XAxis mode: Wavelengths
Number of Pixels in Spectrum: 2068
>>>>>Begin Spectral Data<<<<<
179.565	1353.97
179.642	1419.28
179.718	1471.31
179.795	1518.76
179.871	1559.96
179.948	1581.9
180.024	1603.84
180.101	1630.11
180.177	1646.52
180.254	1672.08
180.33	1696.53
180.407	1760.89
180.483	1869.03
180.56	1971.57
180.636	2067.2
180.712	2052.88
180.789	2063.29
180.865	2075.32
180.942	2085.83
181.018	2096.87
181.095	2111.95
181.171	2120.37
181.248	2120.56
181.324	2134.88
181.4	2141.59
181.477	2153.78
181.553	2167.62
181.63	2191.64
181.706	2209.82
181.782	2219
181.859	2219.57
181.935	2228.04
182.011	2226.19
182.088	2244.37
182.164	2263.74
182.24	2278.77
182.317	2289.86
182.393	2290.86
182.469	2307.18
182.546	2321.98
182.622	2325.31
182.698	2321.55
182.775	2334.21
182.851	2350.68
182.927	2342.4
183.003	2337.5
183.08	2328.74
183.156	2336.45
183.232	2332.35
183.308	2318.6
183.385	2328.12
183.461	2347.54
183.537	2345.59
183.613	2357.77
183.69	2344.92
183.766	2331.59
183.842	2339.49
183.918	2344.87
183.995	2360.58
184.071	2363.67
184.147	2357.1
184.223	2345.21
184.299	2361.59
184.375	2350.83
184.452	2357.07
184.528	2413.54
184.604	2423.87
184.68	2438.53
184.756	2448.34
184.832	2455.96
184.908	2461.38
184.985	2460.57
185.061	2442.53
185.137	2453.1
185.213	2442.53
185.289	2448.91
185.365	2443.06
185.441	2442.58
185.517	2458.82
185.593	2452.2
185.669	2449.49
185.745	2460.2
185.822	2479.23
185.898	2467.52
185.974	2475.8
186.05	2466.85
186.126	2429.28
186.202	2420.52
186.278	2416.33
186.354	2407.57
186.43	2410.85
186.506	2407
186.582	2406.19
186.658	2410.85
186.734	2389.44
186.81	2393.29
186.886	2394.53
186.962	2409.24
187.038	2403.9
187.114	2397.14
187.19	2405.33
187.266	2394.81
187.341	2399.24
187.417	2389.48
187.493	2389.05
187.569	2390.39
187.645	2384.06
187.721	2369.77
187.797	2380.77
187.873	2383.67
187.949	2377.1
188.025	2372.67
188.101	2380.62
188.176	2387.14
188.252	2383.81
188.328	2391.9
188.404	2391.28
188.48	2381.76
188.556	2374.38
188.632	2373.91
188.707	2372.48
188.783	2367.53
188.859	2360.53
188.935	2348.82
189.011	2358.48
189.086	2353.82
189.162	2344.49
189.238	2345.16
189.314	2345.2
189.39	2337.16
189.465	2329.45
189.541	2345.49
189.617	2328.17
189.693	2319.08
189.768	2320.93
189.844	2346.93
189.92	2338.42
189.996	2347.56
190.071	2362.93
190.147	2363.83
190.223	2371.17
190.298	2363.07
190.374	2351.93
190.45	2367.21
190.526	2373.02
190.601	2367.83
190.677	2368.49
190.753	2398.64
190.828	2398.26
190.904	2413.21
190.98	2433.07
191.055	2444.78
191.131	2435.83
191.207	2460.53
191.282	2473.15
191.358	2466.34
191.433	2450.95
191.509	2464.61
191.585	2460.9
191.66	2461.9
191.736	2471.18
191.811	2465.28
191.887	2480.32
191.963	2502.42
192.038	2508.08
192.114	2508.13
192.189	2511.27
192.265	2507.23
192.34	2484.55
192.416	2483.93
192.491	2480.46
192.567	2478.31
192.642	2480.79
192.718	2481.12
192.793	2467.08
192.869	2460.89
192.944	2460.65
193.02	2469.7
193.095	2473.94
193.171	2477.51
193.246	2475.79
193.322	2468.41
193.397	2468.46
193.473	2454.17
193.548	2433.6
193.624	2438.79
193.699	2440.03
193.775	2457.22
193.85	2461.08
193.925	2470.65
194.001	2473.93
194.076	2464.75
194.152	2455.98
194.227	2447.84
194.302	2438.51
194.378	2440.56
194.453	2439.27
194.529	2454.32
194.604	2436.08
194.679	2431.09
194.755	2411.81
194.83	2425.1
194.905	2427.58
194.981	2438.48
195.056	2433.58
195.131	2443.72
195.207	2443.19
195.282	2432.72
195.357	2413.72
195.433	2426.67
195.508	2412.81
195.583	2417.24
195.659	2433.05
195.734	2443.05
195.809	2445.1
195.884	2454.14
195.96	2455.85
196.035	2472.14
196.11	2466.18
196.185	2481.99
196.261	2485.85
196.336	2521.65
196.411	2508.03
196.486	2510.5
196.561	2503.5
196.637	2510.45
196.712	2527.03
196.787	2527.6
196.862	2541.84
196.937	2553.31
197.013	2562.7
197.088	2576.03
197.163	2599.14
197.238	2617.44
197.313	2615.73
197.388	2627.35
197.464	2659.84
197.539	2671.08
197.614	2662.51
197.689	2679.18
197.764	2698.63
197.839	2722.26
197.914	2715.68
197.989	2737.26
198.065	2753.75
198.14	2807.29
198.215	2838.6
198.29	2851.19
198.365	2868.2
198.44	2879.97
198.515	2909.33
198.59	2922.77
198.665	2951.47
198.74	2965.3
198.815	2965.58
198.89	2990.13
198.965	3023.52
199.04	3020.32
199.115	3039
199.19	3085.67
199.265	3088.68
199.34	3096.64
199.415	3130.71
199.49	3155.74
199.565	3167.52
199.64	3193.37
199.715	3188.88
199.79	3197.42
199.865	3206.34
199.94	3205.77
200.015	3242.5
200.09	3248.94
200.165	3255.95
200.24	3265.21
200.315	3308.05
200.39	3322.5
200.464	3329.09
200.539	3327.99
200.614	3346.31
200.689	3372.32
200.764	3379.91
200.839	3399.6
200.914	3403.56
200.989	3392.63
201.063	3408.38
201.138	3391.07
201.213	3388.16
201.288	3371.94
201.363	3374.85
201.438	3375.42
201.512	3391.69
201.587	3370.26
201.662	3372.17
201.737	3387.25
201.812	3394.88
201.886	3357.25
201.961	3372.71
202.036	3358.31
202.111	3360.55
202.186	3329.41
202.26	3310.56
202.335	3288.42
202.41	3280.16
202.485	3267.48
202.559	3247.68
202.634	3217.77
202.709	3229.4
202.784	3211.23
202.858	3212.04
202.933	3195.72
203.008	3188.95
203.082	3170.97
203.157	3176.12
203.232	3136.03
203.306	3118.94
203.381	3092.65
203.456	3073
203.53	3055.39
203.605	3045.85
203.68	3027.29
203.754	3032.11
203.829	3026.72
203.904	3016.99
203.978	3018.61
204.053	3034.69
204.127	3036.78
204.202	3053.1
204.277	3054.29
204.351	3068.88
204.426	3082.62
204.5	3093.88
204.575	3082.39
204.65	3119.13
204.724	3137.7
204.799	3175.65
204.873	3201.71
204.948	3230.62
205.022	3252.75
205.097	3277.58
205.171	3327.49
205.246	3377.1
205.32	3413.89
205.395	3454.66
205.469	3486.57
205.544	3538.02
205.618	3574.12
205.693	3637.45
205.767	3674.13
205.842	3753.78
205.916	3805.81
205.991	3852.21
206.065	3920.88
206.14	4001.79
206.214	4060.28
206.289	4122.55
206.363	4207
206.438	4282.54
206.512	4364.68
206.586	4468.06
206.661	4555.66
206.735	4617.19
206.81	4704.02
206.884	4806.58
206.958	4885.47
207.033	4995.04
207.107	5097.11
207.181	5221.46
207.256	5311.84
207.33	5435.33
207.405	5546.61
207.479	5670.16
207.553	5788.4
207.628	5880.69
207.702	6001.13
207.776	6110.42
207.851	6217.95
207.925	6348.15
207.999	6462.4
208.073	6577.78
208.148	6692.37
208.222	6796.93
208.296	6945.31
208.371	7080.94
208.445	7213.08
208.519	7367.04
208.593	7504.44
208.668	7622.67
208.742	7755.09
208.816	7881.43
208.89	8021.31
208.965	8145.68
209.039	8282.27
209.113	8423.53
209.187	8571.4
209.261	8695.4
209.336	8837.51
209.41	8990.28
209.484	9118.29
209.558	9267.98
209.632	9405.86
209.707	9546.08
209.781	9699.11
209.855	9848.6
209.929	9995.24
210.003	10128.86
210.077	10248.9
210.151	10434.78
210.226	10595.5
210.3	10750.52
210.374	10899.97
210.448	11029.5
210.522	11167.61
210.596	11298.4
210.67	11432.32
210.744	11604.13
210.818	11757.67
210.892	11910.98
210.966	12029.21
211.041	12171.4
211.115	12280.81
211.189	12426.33
211.263	12561.78
211.337	12684.74
211.411	12814.84
211.485	12924.08
211.559	13059.43
211.633	13181.63
211.707	13257.6
211.781	13386.79
211.855	13460.98
211.929	13567.66
212.003	13655.25
212.077	13770.27
212.151	13901.15
212.225	14018
212.299	14119.04
212.373	14214.05
212.447	14312.82
212.52	14458.25
212.594	14561.7
212.668	14690.7
212.742	14784.07
212.816	14880.04
212.89	14979.58
212.964	15080.37
213.038	15182.13
213.112	15289.18
213.186	15399.38
213.26	15476.98
213.333	15516.12
213.407	15611.85
213.481	15701.36
213.555	15816.85
213.629	15901.78
213.703	15972.49
213.777	16063.87
213.85	16140.51
213.924	16281.58
213.998	16377.35
214.072	16447.76
214.146	16518.32
214.219	16592.54
214.293	16667.39
214.367	16753.95
214.441	16846.68
214.515	16914.68
214.588	16968.95
214.662	17025.1
214.736	17084.09
214.81	17171.56
214.883	17265.01
214.957	17327.86
215.031	17399.14
215.105	17445.07
215.178	17505.89
215.252	17569.45
215.326	17607.24
215.4	17648.78
215.473	17650.95
215.547	17690.51
215.621	17743.14
215.694	17817.45
215.768	17866.26
215.842	17919.9
215.915	17972.57
215.989	18006.26
216.063	18048.81
216.136	18111.56
216.21	18165.48
216.284	18242.25
216.357	18303.74
216.431	18358.24
216.504	18431.35
216.578	18515.2
216.652	18581.85
216.725	18636.98
216.799	18705.41
216.873	18768.78
216.946	18835.62
217.02	18891.76
217.093	18942.45
217.167	18978.64
217.24	19010.59
217.314	19048.28
217.387	19089.34
217.461	19134.15
217.535	19198.24
217.608	19245.66
217.682	19300.79
217.755	19351.01
217.829	19386.52
217.902	19432.21
217.976	19476.3
218.049	19513.94
218.123	19549.74
218.196	19598.66
218.27	19643.91
218.343	19670.56
218.417	19721.78
218.49	19757.2
218.563	19818.36
218.637	19876.72
218.71	19939.32
218.784	19993.87
218.857	20060.42
218.931	20114.06
219.004	20159.36
219.077	20207.36
219.151	20254.25
219.224	20298.3
219.298	20336.42
219.371	20396.22
219.444	20423.16
219.518	20469.38
219.591	20507.89
219.665	20572.37
219.738	20613.29
219.811	20638.68
219.885	20683.89
219.958	20731.55
220.031	20774.83
220.105	20825.29
220.178	20854.55
220.251	20879.85
220.325	20924.09
220.398	20958.89
220.471	21002.89
220.544	21049.74
220.618	21075.72
220.691	21119.77
220.764	21147.96
220.838	21201.46
220.911	21231.44
220.984	21289.86
221.057	21333.53
221.131	21380.13
221.204	21374.2
221.277	21430.65
221.35	21502.32
221.424	21532.49
221.497	21559.53
221.57	21593.32
221.643	21620.12
221.716	21663.26
221.79	21691.26
221.863	21719.08
221.936	21755.66
222.009	21779.33
222.082	21807.38
222.155	21839.63
222.229	21882.77
222.302	21919.26
222.375	21931.31
222.448	21955.08
222.521	21980.96
222.594	22003.67
222.667	22013.11
222.74	22055.29
222.814	22077.85
222.887	22090.43
222.96	22128.42
223.033	22170.41
223.106	22190.12
223.179	22213.26
223.252	22230.91
223.325	22255.59
223.398	22272.41
223.471	22286.59
223.544	22305.19
223.617	22324.28
223.69	22347.57
223.763	22355.86
223.837	22379.82
223.91	22408.65
223.983	22402.81
224.056	22404.16
224.129	22422.29
224.202	22446.83
224.275	22454.88
224.348	22454.59
224.42	22455.94
224.493	22450.35
224.566	22448.71
224.639	22467.94
224.712	22470.16
224.785	22472.57
224.858	22480.43
224.931	22486.79
225.004	22475.75
225.077	22487.71
225.15	22467.32
225.223	22478.98
225.296	22503.96
225.369	22483.28
225.442	22467.8
225.514	22478.02
225.587	22484.96
225.66	22489.98
225.733	22495.47
225.806	22496.39
225.879	22492.53
225.952	22481.11
226.025	22493.01
226.097	22508.15
226.17	22515.72
226.243	22502.66
226.316	22497.74
226.389	22503.24
226.461	22507.91
226.534	22522.66
226.607	22528.02
226.68	22554.34
226.753	22548.99
226.825	22519.48
226.898	22537.9
226.971	22547.92
227.044	22554.62
227.117	22551.25
227.189	22548.41
227.262	22553.76
227.335	22556.5
227.407	22546.81
227.48	22549.37
227.553	22544.11
227.626	22533.36
227.698	22525.6
227.771	22528.4
227.844	22520.64
227.916	22516.83
227.989	22502.89
228.062	22491.13
228.134	22502.08
228.207	22496.43
228.28	22479.46
228.352	22465.53
228.425	22452.9
228.498	22463.22
228.57	22445.62
228.643	22463.22
228.716	22451.99
228.788	22439.69
228.861	22425.67
228.934	22439.79
229.006	22435.89
229.079	22424.85
229.151	22403.34
229.224	22370.71
229.296	22356.2
229.369	22367.29
229.442	22370.18
229.514	22351.76
229.587	22352.29
229.659	22316.23
229.732	22305.19
229.804	22313.29
229.877	22345.74
229.949	22354.03
230.022	22357.16
230.094	22348.34
230.167	22336.48
230.239	22316.72
230.312	22303.22
230.384	22321.06
230.457	22309.2
230.529	22301.63
230.602	22293
230.674	22288.57
230.747	22292.08
230.819	22303.7
230.892	22270.49
230.964	22257.62
231.037	22247.4
231.109	22236.7
231.181	22241.71
231.254	22216.02
231.326	22193.17
231.399	22165.49
231.471	22141.53
231.544	22099.16
231.616	22102.77
231.688	22076.16
231.761	22058.57
231.833	22029.55
231.905	21983.03
231.978	21966.98
232.05	21948.47
232.122	21928.8
232.195	21905.23
232.267	21909.04
232.339	21882.53
232.412	21883.68
232.484	21854.62
232.556	21830.37
232.629	21838.52
232.701	21827.43
232.773	21808.97
232.846	21787.86
232.918	21756.96
232.99	21738.4
233.062	21723.8
233.135	21702.68
233.207	21672.17
233.279	21662.29
233.351	21658.39
233.424	21630.38
233.496	21594.19
233.568	21593.9
233.64	21561.46
233.713	21544.98
233.785	21508.78
233.857	21492.29
233.929	21447.8
234.001	21452.62
234.074	21447.42
234.146	21398.16
234.218	21366.1
234.29	21342.97
234.362	21301.81
234.434	21270.58
234.507	21226
234.579	21192.88
234.651	21157.31
234.723	21151.14
234.795	21131.72
234.867	21101.6
234.939	21102.22
235.012	21086.37
235.084	21057.5
235.156	21047.81
235.228	21008.53
235.3	20984.14
235.372	20950.26
235.444	20942.36
235.516	20877.48
235.588	20855.27
235.66	20821.14
235.732	20783.02
235.804	20813.29
235.876	20802.74
235.948	20785.39
236.02	20760.08
236.092	20725.29
236.164	20699.6
236.236	20655.84
236.308	20610.88
236.38	20584.52
236.452	20538.44
236.524	20507.41
236.596	20499.94
236.668	20474.83
236.74	20451.6
236.812	20414.54
236.884	20393.29
236.956	20361.77
237.028	20331.5
237.1	20291.02
237.172	20282.3
237.244	20280.13
237.316	20210.3
237.388	20167.31
237.46	20138.49
237.532	20124.51
237.604	20077.14
237.675	20058.49
237.747	20037.67
237.819	19999.31
237.891	19965.77
237.963	19932.04
238.035	19894.84
238.107	19813.35
238.178	19790.94
238.25	19751.13
238.322	19750.7
238.394	19699.76
238.466	19658.94
238.538	19635.57
238.609	19606.61
238.681	19549.31
238.753	19495.14
238.825	19466.86
238.897	19437.94
238.968	19417.07
239.04	19370.81
239.112	19379.34
239.184	19336.31
239.255	19295.97
239.327	19274.19
239.399	19253.08
239.471	19231.88
239.542	19204.85
239.614	19191.64
239.686	19129.19
239.758	19113
239.829	19057.24
239.901	19035.46
239.973	19009.29
240.044	18978.5
240.116	18950.21
240.188	18919.18
240.259	18879.52
240.331	18829.45
240.403	18805.02
240.474	18747.33
240.546	18715.19
240.618	18658.04
240.689	18617.65
240.761	18581.85
240.833	18561.9
240.904	18510
240.976	18459.2
241.048	18427.93
241.119	18401.28
241.191	18382.97
241.262	18360.22
241.334	18325.09
241.405	18287.26
241.477	18234.2
241.549	18198.59
241.62	18163.89
241.692	18141.05
241.763	18126.06
241.835	18089.1
241.906	18044.81
241.978	17997.68
242.049	17973.06
242.121	17949.59
242.192	17930.99
242.264	17879.04
242.335	17824.92
242.407	17799.42
242.478	17769.83
242.55	17743.95
242.621	17697.45
242.693	17655.57
242.764	17614.42
242.836	17580.15
242.907	17550.32
242.979	17521.89
243.05	17490.75
243.122	17458.47
243.193	17415.19
243.264	17359
243.336	17329.69
243.407	17318.8
243.479	17299.48
243.55	17272.25
243.622	17242.9
243.693	17205.16
243.764	17196.44
243.836	17149.69
243.907	17117.83
243.978	17084.53
244.05	17053.21
244.121	17002.02
244.192	16978.89
244.264	16922.31
244.335	16888.33
244.407	16835.32
244.478	16808.23
244.549	16769.82
244.62	16723.36
244.692	16689.81
244.763	16656.17
244.834	16616.46
244.906	16562.82
244.977	16543.83
245.048	16522.33
245.119	16478.28
245.191	16433.7
245.262	16377.02
245.333	16369.16
245.405	16329.4
245.476	16294.94
245.547	16252.24
245.618	16227.56
245.689	16197.15
245.761	16176.81
245.832	16142.97
245.903	16133.62
245.974	16109.57
246.045	16071.59
246.117	16052.51
246.188	16002.18
246.259	15958.08
246.33	15924.15
246.401	15895.71
246.473	15846.89
246.544	15801.05
246.615	15782.73
246.686	15752.22
246.757	15736.12
246.828	15692.36
246.899	15676.16
246.97	15630.71
247.042	15588.87
247.113	15565.06
247.184	15549.93
247.255	15506.54
247.326	15475.7
247.397	15432.12
247.468	15401.32
247.539	15377.03
247.61	15335.86
247.681	15324.3
247.752	15313.55
247.823	15276.19
247.894	15246.69
247.965	15199.45
248.037	15165.61
248.108	15116.01
248.179	15082.22
248.25	15049.4
248.321	15027.66
248.392	14985.77
248.463	14985
248.534	14955.25
248.605	14938.53
248.675	14899.1
248.746	14879.34
248.817	14857.93
248.888	14840.82
248.959	14799.99
249.03	14779.7
249.101	14751.88
249.172	14720.02
249.243	14670.13
249.314	14662.27
249.385	14636.29
249.456	14626.21
249.527	14592.95
249.598	14572.56
249.669	14538.39
249.739	14513.61
249.81	14486.08
249.881	14449.93
249.952	14414.98
250.023	14384.61
250.094	14335.63
250.165	14296.93
250.235	14266.07
250.306	14238.4
250.377	14192.03
250.448	14167.54
250.519	14106.9
250.59	14095.28
250.66	14055.41
250.731	14051.99
250.802	14018.83
250.873	13996.99
250.944	13973.95
251.014	13943.05
251.085	13948.16
251.156	13933.6
251.227	13922.85
251.297	13912.63
251.368	13888.72
251.439	13883.22
251.51	13876.47
251.58	13839.4
251.651	13809.85
251.722	13798.52
251.792	13753.93
251.863	13731.03
251.934	13718.02
252.005	13732.14
252.075	13707.41
252.146	13701.68
252.217	13688.32
252.287	13669.91
252.358	13647.54
252.429	13634.72
252.499	13607.96
252.57	13579.91
252.641	13568.67
252.711	13537.87
252.782	13500.37
252.852	13504.75
252.923	13477.37
252.994	13450.04
253.064	13445.36
253.135	13414.37
253.205	13388
253.276	13385.3
253.347	13380.48
253.417	13352.28
253.488	13320.36
253.558	13286.76
253.629	13264.78
253.699	13238.99
253.77	13225.73
253.841	13196.76
253.911	13183.17
253.982	13159.59
254.052	13144.94
254.123	13116.11
254.193	13098.66
254.264	13115.97
254.334	13082.03
254.405	13041.49
254.475	13011.12
254.546	12993.14
254.616	12990.58
254.687	12972.31
254.757	12953.56
254.827	12921.79
254.898	12902.37
254.968	12881.45
255.039	12859.46
255.109	12847.8
255.18	12820.03
255.25	12773.27
255.321	12761.66
255.391	12722.51
255.461	12726.18
255.532	12674.69
255.602	12659.99
255.673	12614.87
255.743	12584.89
255.813	12533.02
255.884	12524.25
255.954	12515.71
256.024	12510.51
256.095	12487.51
256.165	12452.66
256.235	12442.59
256.306	12418.24
256.376	12410.82
256.446	12403.93
256.517	12384.79
256.587	12372.74
256.657	12355.34
256.728	12341.36
256.798	12313.69
256.868	12292.53
256.938	12266.07
257.009	12258.4
257.079	12238.98
257.149	12253.68
257.219	12207.59
257.29	12203.45
257.36	12163.83
257.43	12153.99
257.5	12111.82
257.571	12088.97
257.641	12081.31
257.711	12044.58
257.781	12039.47
257.852	12020.28
257.922	11983.79
257.992	11971.36
258.062	11947.11
258.132	11934.19
258.202	11908.74
258.273	11898.96
258.343	11899.01
258.413	11873.27
258.483	11851.34
258.553	11819.53
258.623	11795.71
258.693	11783.09
258.764	11784.34
258.834	11788.15
258.904	11768.19
258.974	11741.44
259.044	11721.39
259.114	11701.73
259.184	11687.27
259.254	11662.35
259.324	11620.37
259.394	11607.6
259.464	11603.74
259.535	11583.59
259.605	11560.36
259.675	11542.77
259.745	11526.14
259.815	11488.5
259.885	11460.11
259.955	11472.74
260.025	11449.85
260.095	11424.02
260.165	11411.24
260.235	11413.51
260.305	11388.11
260.375	11360.69
260.445	11371.43
260.515	11372.01
260.585	11370.86
260.655	11352.98
260.725	11345.12
260.795	11345.55
260.865	11350.28
260.934	11322.37
261.004	11308.49
261.074	11295.09
261.144	11291.87
261.214	11284.73
261.284	11271.91
261.354	11268.59
261.424	11240.39
261.494	11251.62
261.564	11233.84
261.634	11224.68
261.703	11182.56
261.773	11168.54
261.843	11157.45
261.913	11137.31
