Data from 20250703_urea_0.1M_MAYP1162681_18-01-05-734.txt Node
Date: Thu Jul 03 18:01:05 BST 2025
User: adleo
Spectrometer: MAYP116268
Trigger mode: 0
Integration Time (sec): 1.000000E0
Scans to average: 1
Electric dark correction enabled: true
Nonlinearity correction enabled: true
Boxcar width: 10
XAxis mode: Wavelengths
Number of Pixels in Spectrum: 2068
>>>>>Begin Spectral Data<<<<<
179.565	1341.65
179.642	1406.8
179.718	1454.54
179.795	1502.6
179.871	1537.92
179.948	1559.28
180.024	1582.77
180.101	1609.64
180.177	1625.43
180.254	1651.22
180.33	1675.13
180.407	1740.2
180.483	1846.11
180.56	1950.12
180.636	2043.42
180.712	2031.15
180.789	2041.09
180.865	2056.25
180.942	2064
181.018	2073.8
181.095	2088.79
181.171	2092.93
181.248	2093.45
181.324	2111.1
181.4	2117.19
181.477	2131.18
181.553	2147.11
181.63	2168.05
181.706	2185.37
181.782	2195.4
181.859	2194.59
181.935	2201.16
182.011	2194.21
182.088	2211.68
182.164	2227.05
182.24	2244.7
182.317	2255.45
182.393	2254.21
182.469	2270.96
182.546	2288.14
182.622	2296.42
182.698	2290.28
182.775	2304.89
182.851	2317.84
182.927	2309.32
183.003	2303.89
183.08	2296.76
183.156	2305.28
183.232	2303.28
183.308	2290.28
183.385	2298.09
183.461	2314.12
183.537	2314.17
183.613	2330.4
183.69	2321.07
183.766	2310.98
183.842	2316.79
183.918	2322.35
183.995	2338.39
184.071	2339.82
184.147	2329.78
184.223	2314.55
184.299	2328.03
184.375	2312.13
184.452	2320.46
184.528	2374.36
184.604	2388.64
184.68	2400.39
184.756	2404.72
184.832	2407.77
184.908	2410.86
184.985	2409.2
185.061	2393.06
185.137	2405.16
185.213	2395.11
185.289	2397.16
185.365	2389.78
185.441	2390.07
185.517	2401.97
185.593	2396.36
185.669	2394.31
185.745	2410.59
185.822	2428.57
185.898	2417.43
185.974	2426.47
186.05	2420.05
186.126	2383
186.202	2372.53
186.278	2365.15
186.354	2355.92
186.43	2363.82
186.506	2364.16
186.582	2363.82
186.658	2371.72
186.734	2350.97
186.81	2348.92
186.886	2353.59
186.962	2368.68
187.038	2364.87
187.114	2358.3
187.19	2367.96
187.266	2358.39
187.341	2356.97
187.417	2349.26
187.493	2352.16
187.569	2354.54
187.645	2346.45
187.721	2333.35
187.797	2341.68
187.873	2351.3
187.949	2348.25
188.025	2339.54
188.101	2343.58
188.176	2350.53
188.252	2346.77
188.328	2355.58
188.404	2358.72
188.48	2351.29
188.556	2341.44
188.632	2338.87
188.707	2341.73
188.783	2336.01
188.859	2331.11
188.935	2320.45
189.011	2332.25
189.086	2326.4
189.162	2319.78
189.238	2320.88
189.314	2321.02
189.39	2312.93
189.465	2303.03
189.541	2320.93
189.617	2306.18
189.693	2297.57
189.768	2300.99
189.844	2328.66
189.92	2316.1
189.996	2325.38
190.071	2336.71
190.147	2336.09
190.223	2344.94
190.298	2335.9
190.374	2325.09
190.45	2339.8
190.526	2347.99
190.601	2338.61
190.677	2335.75
190.753	2366.19
190.828	2365.57
190.904	2381.57
190.98	2401.99
191.055	2416.41
191.131	2408.51
191.207	2432.36
191.282	2444.78
191.358	2434.3
191.433	2416.01
191.509	2432.48
191.585	2428.24
191.66	2430.72
191.736	2438.14
191.811	2429.24
191.887	2447.29
191.963	2472.24
192.038	2475.9
192.114	2476.28
192.189	2479.38
192.265	2480.52
192.34	2457.94
192.416	2457.23
192.491	2451.42
192.567	2452.04
192.642	2453.89
192.718	2451.89
192.793	2437.8
192.869	2434.56
192.944	2436.61
193.02	2448.37
193.095	2453.47
193.171	2459.66
193.246	2457.42
193.322	2456.85
193.397	2459.75
193.473	2443.37
193.548	2422.56
193.624	2428.7
193.699	2425.7
193.775	2442.61
193.85	2443.8
193.925	2452.7
194.001	2453.03
194.076	2444.08
194.152	2431.13
194.227	2421.32
194.302	2410
194.378	2417.57
194.453	2414.95
194.529	2431.04
194.604	2411.33
194.679	2403.62
194.755	2384.96
194.83	2397.77
194.905	2396.39
194.981	2404.25
195.056	2396.78
195.131	2404.25
195.207	2401.49
195.282	2393.44
195.357	2375.49
195.433	2389.06
195.508	2376.2
195.583	2385.68
195.659	2402.82
195.734	2413.77
195.809	2414.15
195.884	2426.95
195.96	2424.67
196.035	2441.52
196.11	2438.47
196.185	2453.42
196.261	2457.04
196.336	2488.94
196.411	2473.03
196.486	2478.03
196.561	2471.36
196.637	2479.93
196.712	2497.22
196.787	2502.03
196.862	2517.7
196.937	2530.5
197.013	2537.46
197.088	2548.17
197.163	2572.18
197.238	2589.06
197.313	2588.48
197.388	2603.1
197.464	2632.79
197.539	2643.88
197.614	2634.41
197.689	2645.56
197.764	2663.61
197.839	2686.1
197.914	2680.62
197.989	2705.96
198.065	2722.97
198.14	2780.37
198.215	2808.67
198.29	2820.64
198.365	2834.89
198.44	2848.8
198.515	2876.11
198.59	2894.18
198.665	2925.35
198.74	2933.93
198.815	2932.98
198.89	2956.76
198.965	2991.57
199.04	2987.71
199.115	3005.2
199.19	3054.26
199.265	3056.16
199.34	3066.8
199.415	3103.06
199.49	3127.03
199.565	3138.33
199.64	3160.65
199.715	3154.11
199.79	3162.84
199.865	3168.42
199.94	3162.89
200.015	3195.09
200.09	3202.34
200.165	3209.64
200.24	3214.08
200.315	3259.54
200.39	3277.71
200.464	3287.21
200.539	3285.58
200.614	3303.09
200.689	3331
200.764	3335.87
200.839	3357.19
200.914	3364.01
200.989	3352.03
201.063	3367.44
201.138	3350.08
201.213	3353.76
201.288	3333.86
201.363	3341.97
201.438	3347.03
201.512	3365.15
201.587	3347.06
201.662	3352.93
201.737	3366.82
201.812	3376.99
201.886	3339.73
201.961	3350.47
202.036	3335.78
202.111	3336.59
202.186	3306.36
202.26	3286.13
202.335	3263.85
202.41	3257.6
202.485	3241.57
202.559	3218.96
202.634	3196.01
202.709	3211.56
202.784	3194.53
202.858	3198.96
202.933	3182.98
203.008	3178.69
203.082	3166.96
203.157	3174.97
203.232	3136.35
203.306	3121.36
203.381	3097.22
203.456	3078.1
203.53	3066.49
203.605	3057.68
203.68	3041.31
203.754	3047.41
203.829	3047.17
203.904	3041.21
203.978	3048.42
204.053	3071.17
204.127	3080.42
204.202	3095.45
204.277	3096.69
204.351	3114.24
204.426	3133.52
204.5	3149.88
204.575	3140.15
204.65	3178.14
204.724	3194.7
204.799	3235.67
204.873	3267.46
204.948	3305.55
205.022	3337.61
205.097	3370.85
205.171	3427.46
205.246	3486.25
205.32	3538.22
205.395	3592.67
205.469	3642.41
205.544	3707.93
205.618	3749.45
205.693	3827
205.767	3883.29
205.842	3974.98
205.916	4040.03
205.991	4102.86
206.065	4191.19
206.14	4294.67
206.214	4375.83
206.289	4467.62
206.363	4571.79
206.438	4675.7
206.512	4782.34
206.586	4905.86
206.661	5017.69
206.735	5103.06
206.81	5211.09
206.884	5337.19
206.958	5439.8
207.033	5576.24
207.107	5708.51
207.181	5869.16
207.256	5992.45
207.33	6147.33
207.405	6297.48
207.479	6449.1
207.553	6595.45
207.628	6713.3
207.702	6866.7
207.776	7002.3
207.851	7147.59
207.925	7315.48
207.999	7448.24
208.073	7589.62
208.148	7738.58
208.222	7875.72
208.296	8065.88
208.371	8241.49
208.445	8415.17
208.519	8599.48
208.593	8769.88
208.668	8915.64
208.742	9077.75
208.816	9239.39
208.89	9411.68
208.965	9566.62
209.039	9739.13
209.113	9918.67
209.187	10108.55
209.261	10260.9
209.336	10449.44
209.41	10631.65
209.484	10794.17
209.558	10984.44
209.632	11163.59
209.707	11341.07
209.781	11526.4
209.855	11703.52
209.929	11889.18
210.003	12056.33
210.077	12218.85
210.151	12433.49
210.226	12633.24
210.3	12821.14
210.374	13011.05
210.448	13171.91
210.522	13340.62
210.596	13512.91
210.67	13687.55
210.744	13887.89
210.818	14084.61
210.892	14258.63
210.966	14405.8
211.041	14571.28
211.115	14719.7
211.189	14900.66
211.263	15065.95
211.337	15225.26
211.411	15387.89
211.485	15522.66
211.559	15682.98
211.633	15835.63
211.707	15951.16
211.781	16102.45
211.855	16203.81
211.929	16327.78
212.003	16447.8
212.077	16597.3
212.151	16749.75
212.225	16892.6
212.299	17011.59
212.373	17123.5
212.447	17242.68
212.52	17400.95
212.594	17533.58
212.668	17673.05
212.742	17769.67
212.816	17891.07
212.89	18006.39
212.964	18121.38
213.038	18247.83
213.112	18369.71
213.186	18503.48
213.26	18585.7
213.333	18649.6
213.407	18765.83
213.481	18879.56
213.555	19008.09
213.629	19102.97
213.703	19193.33
213.777	19300.6
213.85	19392.12
213.924	19541.12
213.998	19662.28
214.072	19765.89
214.146	19849.55
214.219	19952.34
214.293	20053.16
214.367	20154.26
214.441	20264.48
214.515	20353.15
214.588	20416.19
214.662	20472.86
214.736	20537.93
214.81	20633.3
214.883	20733.01
214.957	20810.31
215.031	20882.74
215.105	20924.43
215.178	20991.18
215.252	21053.74
215.326	21099.04
215.4	21144.68
215.473	21161.99
215.547	21196.69
215.621	21251.69
215.694	21328.47
215.768	21364.14
215.842	21423.52
215.915	21475.19
215.989	21507.92
216.063	21558.82
216.136	21622.78
216.21	21690.75
216.284	21765.41
216.357	21833.62
216.431	21891.95
216.504	21962.37
216.578	22045.96
216.652	22131.38
216.725	22189.32
216.799	22257.73
216.873	22319
216.946	22391.84
217.02	22443.23
217.093	22501.61
217.167	22520.79
217.24	22553.67
217.314	22604.97
217.387	22648.35
217.461	22694.78
217.535	22764.79
217.608	22793.04
217.682	22830.94
217.755	22887.06
217.829	22922.06
217.902	22973.75
217.976	23012.42
218.049	23041.5
218.123	23068.26
218.196	23118.84
218.27	23160.94
218.343	23184.71
218.417	23231.63
218.49	23271.17
218.563	23332.02
218.637	23385.55
218.71	23458.61
218.784	23508.47
218.857	23550.57
218.931	23600.29
219.004	23637.85
219.077	23672.53
219.151	23720.75
219.224	23761.12
219.298	23798.3
219.371	23836.74
219.444	23851.07
219.518	23888.15
219.591	23928.62
219.665	23988.33
219.738	24021.85
219.811	24034.44
219.885	24086.29
219.958	24124.06
220.031	24148.47
220.105	24177.12
220.178	24207.7
220.251	24229.75
220.325	24268.82
220.398	24311.46
220.471	24346.72
220.544	24387.29
220.618	24415.8
220.691	24447.45
220.764	24479.72
220.838	24505.86
220.911	24532.69
220.984	24573.83
221.057	24607.12
221.131	24628.73
221.204	24617.49
221.277	24651.17
221.35	24712.97
221.424	24722.33
221.497	24733.62
221.57	24753.83
221.643	24774.14
221.716	24792.81
221.79	24808.15
221.863	24822.87
221.936	24835.56
222.009	24846.99
222.082	24860.6
222.155	24854.43
222.229	24894.67
222.302	24921.01
222.375	24924.29
222.448	24941.52
222.521	24955.41
222.594	24954.35
222.667	24959.22
222.74	24985.66
222.814	24995.22
222.887	24992.37
222.96	25015.63
223.033	25031.26
223.106	25049.36
223.179	25073.53
223.252	25078.65
223.325	25086.27
223.398	25093.27
223.471	25103.16
223.544	25114.64
223.617	25114.88
223.69	25139.01
223.763	25107.84
223.837	25106.05
223.91	25115.22
223.983	25096.79
224.056	25088.83
224.129	25092.73
224.202	25098.04
224.275	25087.28
224.348	25058.38
224.42	25045.21
224.493	25017.8
224.566	25006.31
224.639	25003.23
224.712	24979.68
224.785	24973.12
224.858	24965.59
224.931	24942.28
225.004	24918.54
225.077	24901.75
225.15	24863.2
225.223	24833.1
225.296	24858.48
225.369	24825.48
225.442	24808.01
225.514	24805.41
225.587	24793.01
225.66	24792.72
225.733	24778.68
225.806	24773.8
225.879	24760.44
225.952	24726.53
226.025	24721.7
226.097	24726.14
226.17	24710.22
226.243	24682.87
226.316	24661.68
226.389	24640.99
226.461	24637.18
226.534	24629.84
226.607	24604.13
226.68	24622.17
226.753	24622.46
226.825	24582.56
226.898	24583.24
226.971	24564.13
227.044	24546.57
227.117	24540.93
227.189	24518.93
227.262	24526.17
227.335	24511.69
227.407	24504.79
227.48	24505.08
227.553	24497.22
227.626	24465.86
227.698	24446.37
227.771	24423.12
227.844	24400.55
227.916	24376.19
227.989	24336.58
228.062	24312.76
228.134	24317.05
228.207	24288.83
228.28	24252.8
228.352	24232.63
228.425	24209.82
228.498	24207.99
228.57	24173.74
228.643	24159.85
228.716	24138.33
228.788	24099.02
228.861	24074.61
228.934	24058.21
229.006	24031.88
229.079	23998.41
229.151	23972.94
229.224	23937.3
229.296	23919.79
229.369	23922.83
229.442	23921.05
229.514	23899.92
229.587	23899.87
229.659	23853.72
229.732	23827.63
229.804	23825.89
229.877	23834.91
229.949	23830.13
230.022	23827.72
230.094	23815.67
230.167	23793.58
230.239	23766.23
230.312	23749.06
230.384	23755.14
230.457	23733.77
230.529	23725.38
230.602	23706.48
230.674	23682.41
230.747	23676.1
230.819	23667.9
230.892	23610.99
230.964	23591.61
231.037	23575.07
231.109	23540.97
231.181	23538.61
231.254	23515.56
231.326	23486.91
231.399	23447.85
231.471	23409.99
231.544	23353.91
231.616	23340.02
231.688	23308.43
231.761	23278.3
231.833	23236.06
231.905	23177.76
231.978	23155.53
232.05	23118.25
232.122	23091.69
232.195	23060.01
232.267	23049.5
232.339	23015.46
232.412	23003.26
232.484	22959.19
232.556	22931.41
232.629	22925.19
232.701	22902.92
232.773	22871.34
232.846	22838.5
232.918	22815.5
232.99	22786.96
233.062	22765.8
233.135	22739.23
233.207	22702.83
233.279	22687.59
233.351	22674.82
233.424	22627.33
233.496	22584.28
233.568	22582.45
233.64	22538.58
233.713	22513.56
233.785	22473.83
233.857	22456.81
233.929	22412.42
234.001	22410.78
234.074	22393.86
234.146	22333.3
234.218	22291.36
234.29	22263.06
234.362	22222.77
234.434	22172.44
234.507	22134.45
234.579	22085.81
234.651	22041.37
234.723	22018.13
234.795	21979.33
234.867	21943.56
234.939	21929.34
235.012	21897.62
235.084	21856.69
235.156	21837.94
235.228	21798.61
235.3	21755.86
235.372	21708.76
235.444	21691.31
235.516	21633.66
235.588	21596.26
235.66	21568.93
235.732	21525.79
235.804	21547.19
235.876	21531.82
235.948	21506.66
236.02	21466.7
236.092	21437.78
236.164	21411.9
236.236	21359.94
236.308	21319.36
236.38	21292.9
236.452	21255.45
236.524	21223.4
236.596	21205.76
236.668	21169.56
236.74	21131.39
236.812	21105.12
236.884	21086.86
236.956	21041.55
237.028	20991.04
237.1	20946.37
237.172	20927.67
237.244	20912.68
237.316	20829.87
237.388	20778.54
237.46	20736.32
237.532	20716.52
237.604	20666.59
237.675	20640.47
237.747	20621.29
237.819	20578.15
237.891	20532.66
237.963	20494.73
238.035	20452.61
238.107	20371.02
238.178	20354.34
238.25	20306.39
238.322	20291.12
238.394	20225.86
238.466	20195.5
238.538	20168.32
238.609	20133.1
238.681	20068.57
238.753	20017.19
238.825	19982.06
238.897	19943.08
238.968	19922.83
239.04	19882.84
239.112	19872.14
239.184	19823.66
239.255	19777.73
239.327	19746.99
239.399	19704.77
239.471	19678.22
239.542	19640.87
239.614	19631.43
239.686	19570.75
239.758	19557.79
239.829	19508.59
239.901	19485.55
239.973	19440.45
240.044	19402.33
240.116	19365.13
240.188	19335.54
240.259	19296.74
240.331	19256.31
240.403	19224.03
240.474	19172.08
240.546	19127.36
240.618	19079.79
240.689	19036.33
240.761	19002.59
240.833	18983.08
240.904	18945.06
240.976	18889.97
241.048	18863.57
241.119	18828.05
241.191	18798.32
241.262	18775.43
241.334	18726.71
241.405	18689.75
241.477	18649.7
241.549	18617.08
241.62	18578.62
241.692	18537.22
241.763	18509.51
241.835	18463.54
241.906	18427.06
241.978	18367.55
242.049	18333.67
242.121	18295.79
242.192	18272.71
242.264	18216.61
242.335	18149.24
242.407	18119.03
242.478	18084.04
242.55	18045.73
242.621	18004.62
242.693	17959.47
242.764	17924.87
242.836	17878.94
242.907	17847.62
242.979	17822.46
243.05	17788.44
243.122	17766.27
243.193	17736.44
243.264	17676.97
243.336	17638.95
243.407	17618.27
243.479	17614.71
243.55	17580.87
243.622	17558.46
243.693	17518.47
243.764	17498.47
243.836	17464.34
243.907	17421.45
243.978	17383.48
244.05	17352.44
244.121	17291.33
244.192	17263.14
244.264	17194.03
244.335	17162.75
244.407	17115.71
244.478	17081.45
244.549	17044.58
244.62	16985.59
244.692	16944.33
244.763	16920.62
244.834	16881.49
244.906	16837.29
244.977	16791.41
245.048	16779.8
245.119	16725.87
245.191	16684.61
245.262	16634.34
245.333	16622.44
245.405	16600.32
245.476	16574.19
245.547	16543.2
245.618	16528.94
245.689	16500.5
245.761	16475.44
245.832	16442.33
245.903	16412.4
245.974	16371.91
246.045	16330.95
246.117	16315.18
246.188	16265.97
246.259	16223.56
246.33	16193.68
246.401	16162.44
246.473	16115.64
246.544	16063.25
246.615	16039.44
246.686	15994.57
246.757	15983.58
246.828	15931.28
246.899	15907.14
246.97	15854.31
247.042	15803.8
247.113	15770.78
247.184	15754.58
247.255	15714.87
247.326	15685.27
247.397	15652.06
247.468	15625.79
247.539	15595.57
247.61	15550.36
247.681	15529.49
247.752	15518.59
247.823	15475.07
247.894	15441.71
247.965	15407.3
248.037	15376.4
248.108	15336.78
248.179	15313.06
248.25	15274.31
248.321	15254.93
248.392	15210.97
248.463	15213.96
248.534	15188.03
248.605	15165.76
248.675	15128.64
248.746	15105.26
248.817	15082.61
248.888	15060.58
248.959	15016.14
249.03	14995.36
249.101	14971.69
249.172	14950
249.243	14887.53
249.314	14877.98
249.385	14849.4
249.456	14832.43
249.527	14799.22
249.598	14773.09
249.669	14746.24
249.739	14728.02
249.81	14708.11
249.881	14668.01
249.952	14644.1
250.023	14615.85
250.094	14567.02
250.165	14535.16
250.235	14508.26
250.306	14479.48
250.377	14445.11
250.448	14421.92
250.519	14373.19
250.59	14359.64
250.66	14315.39
250.731	14305.75
250.802	14274.9
250.873	14243.71
250.944	14217
251.014	14184.27
251.085	14179.45
251.156	14150.77
251.227	14131.92
251.297	14112.3
251.368	14091.09
251.439	14066.16
251.51	14051.51
251.58	14024.42
251.651	13988.41
251.722	13978.43
251.792	13928.54
251.863	13898.55
251.934	13892.86
252.005	13899.56
252.075	13873.34
252.146	13872.67
252.217	13868.66
252.287	13855.46
252.358	13835.16
252.429	13832.61
252.499	13800.74
252.57	13780.78
252.641	13771.48
252.711	13743.42
252.782	13702.59
252.852	13705.15
252.923	13676.46
252.994	13653.9
253.064	13641.61
253.135	13611.53
253.205	13578.41
253.276	13582.65
253.347	13576.15
253.417	13542.64
253.488	13507.21
253.558	13478.24
253.629	13448.88
253.699	13430.23
253.77	13412.82
253.841	13386.36
253.911	13367.51
253.982	13344.32
254.052	13331.31
254.123	13307.97
254.193	13285.36
254.264	13309.47
254.334	13271.67
254.405	13242.7
254.475	13211.51
254.546	13185.77
254.616	13173.04
254.687	13156.51
254.757	13143.3
254.827	13116.4
254.898	13100.69
254.968	13081.02
255.039	13052.67
255.109	13038.36
255.18	13001.04
255.25	12955.35
255.321	12938.43
255.391	12895.76
255.461	12902.13
255.532	12851.03
255.602	12822.39
255.673	12778.33
255.743	12743.58
255.813	12703.42
255.884	12690.46
255.954	12678.07
256.024	12676.57
256.095	12656.57
256.165	12618
256.235	12592.7
256.306	12561.99
256.376	12552.2
256.446	12542.56
256.517	12529.79
256.587	12526.03
256.657	12511.13
256.728	12501.88
256.798	12485.39
256.868	12460.95
256.938	12429.57
257.009	12415.64
257.079	12405.04
257.149	12422.44
257.219	12376.45
257.29	12367.39
257.36	12324.3
257.43	12315.62
257.5	12275.47
257.571	12253.58
257.641	12246.01
257.711	12218.15
257.781	12209.72
257.852	12193.42
257.922	12149.08
257.992	12125.8
258.062	12099.09
258.132	12085.55
258.202	12059.85
258.273	12043.23
258.343	12035.46
258.413	12010.21
258.483	12001.72
258.553	11974.54
258.623	11934.82
258.693	11922.58
258.764	11917.52
258.834	11918.82
258.904	11897.13
258.974	11871.48
259.044	11853.41
259.114	11839.19
259.184	11827.38
259.254	11802.66
259.324	11759.42
259.394	11751.18
259.464	11759.52
259.535	11734.55
259.605	11712.14
259.675	11680.57
259.745	11668.61
259.815	11646.93
259.885	11622.97
259.955	11637.29
260.025	11609.19
260.095	11596.22
260.165	11579.84
260.235	11580.56
260.305	11553.96
260.375	11523.25
260.445	11529.62
260.515	11523.88
260.585	11522
260.655	11507.4
260.725	11500.22
260.795	11498.05
260.865	11507.3
260.934	11471.25
261.004	11466.38
261.074	11452.02
261.144	11457.85
261.214	11452.21
261.284	11431.05
261.354	11429.8
261.424	11387.29
261.494	11388.3
261.564	11376.35
261.634	11372.01
261.703	11332.68
261.773	11325.31
261.843	11314.18
