Data from 20250703_urea_0.1M_MAYP1162681_21-41-05-717.txt Node
Date: Thu Jul 03 21:41:05 BST 2025
User: adleo
Spectrometer: MAYP116268
Trigger mode: 0
Integration Time (sec): 1.000000E0
Scans to average: 1
Electric dark correction enabled: true
Nonlinearity correction enabled: true
Boxcar width: 10
XAxis mode: Wavelengths
Number of Pixels in Spectrum: 2068
>>>>>Begin Spectral Data<<<<<
179.565	1389.09
179.642	1451.74
179.718	1503.59
179.795	1547.04
179.871	1585.03
179.948	1606.91
180.024	1629.03
180.101	1655.53
180.177	1673.39
180.254	1697.96
180.33	1724.14
180.407	1792.21
180.483	1901.73
180.56	2005.65
180.636	2103.18
180.712	2091.86
180.789	2104.46
180.865	2120.49
180.942	2129.48
181.018	2140.61
181.095	2155.46
181.171	2160.83
181.248	2164.92
181.324	2180.87
181.4	2188.15
181.477	2200.23
181.553	2212.36
181.63	2234.3
181.706	2250.43
181.782	2260.32
181.859	2263.56
181.935	2270.46
182.011	2267.56
182.088	2286.74
182.164	2307.78
182.24	2321.81
182.317	2331.24
182.393	2328.43
182.469	2343.33
182.546	2355.94
182.622	2362.6
182.698	2356.65
182.775	2369.79
182.851	2384.36
182.927	2376.79
183.003	2372.55
183.08	2365.84
183.156	2378.26
183.232	2378.22
183.308	2366.79
183.385	2374.46
183.461	2393.4
183.537	2393.31
183.613	2410.26
183.69	2400.26
183.766	2388.88
183.842	2397.69
183.918	2400.83
183.995	2413.73
184.071	2413.87
184.147	2410.97
184.223	2399.21
184.299	2414.26
184.375	2402.31
184.452	2408.6
184.528	2466.51
184.604	2479.46
184.68	2490.5
184.756	2496.69
184.832	2498.83
184.908	2505.83
184.985	2503.69
185.061	2485.55
185.137	2496.36
185.213	2479.84
185.289	2482.22
185.365	2474.55
185.441	2471.84
185.517	2485.75
185.593	2487.89
185.669	2487.27
185.745	2498.84
185.822	2513.98
185.898	2504.5
185.974	2515.69
186.05	2506.83
186.126	2465.2
186.202	2459.29
186.278	2459.58
186.354	2453.96
186.43	2464.96
186.506	2463.39
186.582	2464.34
186.658	2471.43
186.734	2447.78
186.81	2450.44
186.886	2450.16
186.962	2461.91
187.038	2460.72
187.114	2452.77
187.19	2455.86
187.266	2445.15
187.341	2445.39
187.417	2438.35
187.493	2437.68
187.569	2438.87
187.645	2432.11
187.721	2419.92
187.797	2425.11
187.873	2427.54
187.949	2418.73
188.025	2408.82
188.101	2413.63
188.176	2417.53
188.252	2412.97
188.328	2422.81
188.404	2422.91
188.48	2418.29
188.556	2414.82
188.632	2414.29
188.707	2415.2
188.783	2411.63
188.859	2405.39
188.935	2392.11
189.011	2401.96
189.086	2392.49
189.162	2385.78
189.238	2383.78
189.314	2380.78
189.39	2378.21
189.465	2371.5
189.541	2389.02
189.617	2373.6
189.693	2364.51
189.768	2369.7
189.844	2395.32
189.92	2384.66
189.996	2395.61
190.071	2409.13
190.147	2404.47
190.223	2416.61
190.298	2408.71
190.374	2396.81
190.45	2411.51
190.526	2420.89
190.601	2412.46
190.677	2417.51
190.753	2447
190.828	2454.71
190.904	2473.33
190.98	2488.33
191.055	2502.04
191.131	2495.18
191.207	2520.94
191.282	2531.27
191.358	2521.23
191.433	2507.08
191.509	2523.4
191.585	2518.68
191.66	2518.35
191.736	2527.02
191.811	2516.11
191.887	2536.4
191.963	2562.64
192.038	2569.55
192.114	2568.69
192.189	2572.83
192.265	2570.97
192.34	2546.29
192.416	2540.01
192.491	2532.63
192.567	2532.91
192.642	2531.63
192.718	2530.39
192.793	2511.82
192.869	2506.87
192.944	2509.91
193.02	2517.53
193.095	2521.87
193.171	2530.25
193.246	2533.68
193.322	2532.44
193.397	2532.87
193.473	2514.67
193.548	2495.81
193.624	2500.14
193.699	2500.14
193.775	2519.44
193.85	2517.06
193.925	2529.58
194.001	2528.68
194.076	2522.01
194.152	2514.25
194.227	2507.1
194.302	2495.35
194.378	2503.11
194.453	2502.06
194.529	2514.25
194.604	2498.11
194.679	2491.63
194.755	2470.21
194.83	2480.17
194.905	2477.36
194.981	2484.74
195.056	2476.41
195.131	2481.27
195.207	2481.31
195.282	2471.79
195.357	2448.74
195.433	2467.26
195.508	2451.35
195.583	2461.68
195.659	2478.35
195.734	2485.12
195.809	2486.4
195.884	2497.97
195.96	2498.25
196.035	2515.16
196.11	2512.73
196.185	2525.35
196.261	2528.49
196.336	2562.25
196.411	2550.49
196.486	2557.91
196.561	2550.72
196.637	2561.2
196.712	2579.73
196.787	2580.87
196.862	2597.21
196.937	2610.82
197.013	2614.44
197.088	2624.83
197.163	2648.89
197.238	2665.19
197.313	2664.81
197.388	2680.39
197.464	2714.13
197.539	2725.52
197.614	2718.23
197.689	2733.05
197.764	2753.3
197.839	2777.84
197.914	2771.07
197.989	2792.57
198.065	2803.71
198.14	2860.08
198.215	2890.44
198.29	2903.6
198.365	2917.51
198.44	2926.04
198.515	2958.37
198.59	2980.39
198.665	3008.99
198.74	3021.87
198.815	3026.02
198.89	3052.53
198.965	3083.06
199.04	3077.29
199.115	3095.64
199.19	3144.42
199.265	3145.75
199.34	3156.39
199.415	3189.55
199.49	3215.16
199.565	3227.94
199.64	3258.42
199.715	3254.89
199.79	3264.67
199.865	3271.35
199.94	3271.68
200.015	3309.56
200.09	3312.71
200.165	3318.34
200.24	3328.22
200.315	3368.91
200.39	3382.85
200.464	3390.15
200.539	3394.97
200.614	3413.24
200.689	3439.39
200.764	3445.75
200.839	3466.02
200.914	3468.97
200.989	3461.53
201.063	3475.51
201.138	3454.58
201.213	3455.53
201.288	3434.77
201.363	3438.92
201.438	3440.12
201.512	3457.67
201.587	3440.01
201.662	3445.12
201.737	3459.96
201.812	3468.08
201.886	3433.35
201.961	3446.91
202.036	3434.55
202.111	3429.73
202.186	3398.54
202.26	3380.3
202.335	3357.97
202.41	3351.14
202.485	3332.97
202.559	3311.45
202.634	3285.07
202.709	3300.04
202.784	3279.62
202.858	3282.34
202.933	3264.92
203.008	3260.96
203.082	3243.69
203.157	3246.41
203.232	3206.93
203.306	3186.79
203.381	3159.06
203.456	3140.03
203.53	3123.17
203.605	3111.02
203.68	3096.61
203.754	3098.61
203.829	3092.79
203.904	3083.1
203.978	3085.2
204.053	3110.01
204.127	3112.25
204.202	3131.81
204.277	3133.62
204.351	3145.84
204.426	3157.91
204.5	3172.84
204.575	3159.68
204.65	3196.09
204.724	3220.78
204.799	3258.83
204.873	3287
204.948	3321.17
205.022	3347.26
205.097	3374.15
205.171	3426.32
205.246	3477.81
205.32	3524
205.395	3572.14
205.469	3610.22
205.544	3668.51
205.618	3702.29
205.693	3772.9
205.767	3813.61
205.842	3897.26
205.916	3957.04
205.991	4013.49
206.065	4084.24
206.14	4177.23
206.214	4247.47
206.289	4312.73
206.363	4404.15
206.438	4491.25
206.512	4586.17
206.586	4695.48
206.661	4795.24
206.735	4867.04
206.81	4964.45
206.884	5080.06
206.958	5165.36
207.033	5287.59
207.107	5402.19
207.181	5539.25
207.256	5635.67
207.33	5769.01
207.405	5894.32
207.479	6029.74
207.553	6153.11
207.628	6257.63
207.702	6385.68
207.776	6502.86
207.851	6628.94
207.925	6769.87
207.999	6896.35
208.073	7019.48
208.148	7143.36
208.222	7258.17
208.296	7424.76
208.371	7574.75
208.445	7724.87
208.519	7893.34
208.593	8043.44
208.668	8172.94
208.742	8319.91
208.816	8470.52
208.89	8621.53
208.965	8759.35
209.039	8904.33
209.113	9070.11
209.187	9232.77
209.261	9376.14
209.336	9535.9
209.41	9700.3
209.484	9840.88
209.558	9999.01
209.632	10155.69
209.707	10316.48
209.781	10486.91
209.855	10647.74
209.929	10799.24
210.003	10935.7
210.077	11077.32
210.151	11265.56
210.226	11453.56
210.3	11617.04
210.374	11781.19
210.448	11924.43
210.522	12072.88
210.596	12220.56
210.67	12363.91
210.744	12556.86
210.818	12722.77
210.892	12879.14
210.966	13009
211.041	13158.67
211.115	13285.21
211.189	13438.6
211.263	13582.78
211.337	13717.08
211.411	13861.07
211.485	13988.09
211.559	14130.2
211.633	14257.99
211.707	14356.18
211.781	14472.74
211.855	14562.74
211.929	14674.09
212.003	14777.39
212.077	14910.43
212.151	15052.34
212.225	15176.95
212.299	15277.93
212.373	15380.55
212.447	15490.54
212.52	15642.42
212.594	15764.56
212.668	15894.56
212.742	15995.2
212.816	16110.97
212.89	16211.85
212.964	16311.43
213.038	16423.77
213.112	16557.52
213.186	16673.91
213.26	16743.66
213.333	16805.01
213.407	16909.6
213.481	17010.61
213.555	17131.3
213.629	17215.92
213.703	17291.93
213.777	17388.89
213.85	17461.66
213.924	17590.53
213.998	17692.21
214.072	17779.01
214.146	17853.9
214.219	17949.31
214.293	18035.91
214.367	18117.79
214.441	18226.9
214.515	18305.35
214.588	18373.97
214.662	18407.66
214.736	18475.27
214.81	18571.84
214.883	18662.78
214.957	18732.13
215.031	18798.87
215.105	18848.75
215.178	18908.07
215.252	18977.7
215.326	19030.18
215.4	19084.97
215.473	19111.48
215.547	19159.62
215.621	19194.41
215.694	19269.25
215.768	19317.2
215.842	19367.99
215.915	19413
215.989	19440.18
216.063	19493.48
216.136	19546.68
216.21	19599.36
216.284	19666.44
216.357	19725.66
216.431	19788.31
216.504	19857.03
216.578	19940.07
216.652	20007.82
216.725	20061.36
216.799	20130.57
216.873	20180.44
216.946	20249.5
217.02	20300.44
217.093	20352.39
217.167	20391.77
217.24	20425.65
217.314	20464.34
217.387	20502.56
217.461	20548.87
217.535	20617.74
217.608	20657.21
217.682	20705.99
217.755	20771.24
217.829	20807.39
217.902	20866.23
217.976	20909.42
218.049	20942.72
218.123	20972.7
218.196	21016.75
218.27	21061.62
218.343	21087.17
218.417	21138.78
218.49	21173.82
218.563	21221.34
218.637	21272.15
218.71	21343.77
218.784	21391.92
218.857	21441.47
218.931	21501.81
219.004	21558.11
219.077	21602.31
219.151	21650.22
219.224	21683.1
219.298	21729.08
219.371	21791.02
219.444	21812.91
219.518	21845.78
219.591	21880.58
219.665	21949.52
219.738	21992.8
219.811	22023.94
219.885	22066.31
219.958	22113.65
220.031	22152.98
220.105	22199.36
220.178	22232.81
220.251	22254.22
220.325	22311.11
220.398	22346.1
220.471	22391.18
220.544	22426.85
220.618	22452.94
220.691	22487.74
220.764	22521.44
220.838	22551.28
220.911	22566.66
220.984	22628.28
221.057	22673.11
221.131	22715.15
221.204	22716.45
221.277	22766.06
221.35	22829.85
221.424	22857.38
221.497	22884.48
221.57	22908.54
221.643	22940.45
221.716	22971.7
221.79	22991.27
221.863	23002.7
221.936	23030.52
222.009	23041.27
222.082	23070.45
222.155	23084.72
222.229	23112.2
222.302	23150.29
222.375	23176.77
222.448	23204.1
222.521	23213.41
222.594	23225.95
222.667	23242.15
222.74	23264.33
222.814	23276.1
222.887	23284.2
222.96	23311.44
223.033	23333.43
223.106	23352.58
223.179	23375
223.252	23395.45
223.325	23424.48
223.398	23435.52
223.471	23456.93
223.544	23470.67
223.617	23474.92
223.69	23496.33
223.763	23502.11
223.837	23513.83
223.91	23526.8
223.983	23528.01
224.056	23524.49
224.129	23532.88
224.202	23550.14
224.275	23544.98
224.348	23530.52
224.42	23508.72
224.493	23489.38
224.566	23497.87
224.639	23510.65
224.712	23506.07
224.785	23494.64
224.858	23491.89
224.931	23496.33
225.004	23476.7
225.077	23477.62
225.15	23456.45
225.223	23453.07
225.296	23488.76
225.369	23470.68
225.442	23455.87
225.514	23458.86
225.587	23467.93
225.66	23473.09
225.733	23468.94
225.806	23479.98
225.879	23476.17
225.952	23475.69
226.025	23496.04
226.097	23500.62
226.17	23494.35
226.243	23463.59
226.316	23462.34
226.389	23450.09
226.461	23441.41
226.534	23445.41
226.607	23440.92
226.68	23456.64
226.753	23443.63
226.825	23396.7
226.898	23406.44
226.971	23401.38
227.044	23389.08
227.117	23375.14
227.189	23369.74
227.262	23369.6
227.335	23367.77
227.407	23359.23
227.48	23357.3
227.553	23345.87
227.626	23328.51
227.698	23320.89
227.771	23323.35
227.844	23303.48
227.916	23292.97
227.989	23277.11
228.062	23264.09
228.134	23278.32
228.207	23264.52
228.28	23254.59
228.352	23248.47
228.425	23234.1
228.498	23231.35
228.57	23217.37
228.643	23228.7
228.716	23204.54
228.788	23177.01
228.861	23163.17
228.934	23169.77
229.006	23157.09
229.079	23142.34
229.151	23110.61
229.224	23072.86
229.296	23058.87
229.369	23089.35
229.442	23101.21
229.514	23084.87
229.587	23081.2
229.659	23044.17
229.732	23038.53
229.804	23039.98
229.877	23055.41
229.949	23053.14
230.022	23064.42
230.094	23046.05
230.167	23026.81
230.239	23008.93
230.312	22998.17
230.384	22996.39
230.457	22985.16
230.529	22970.11
230.602	22957.58
230.674	22951.31
230.747	22961.87
230.819	22976.86
230.892	22913.7
230.964	22896.29
231.037	22885.01
231.109	22871.9
231.181	22867.03
231.254	22839.26
231.326	22815.15
231.399	22783.95
231.471	22761.92
231.544	22707.97
231.616	22705.84
231.688	22678.75
231.761	22661.2
231.833	22642.64
231.905	22601.03
231.978	22574.51
232.05	22552.34
232.122	22523.51
232.195	22501.62
232.267	22493.67
232.339	22461.56
232.412	22458.91
232.484	22422.65
232.556	22376.28
232.629	22371.07
232.701	22354.78
232.773	22338.67
232.846	22307.92
232.918	22282.56
232.99	22254.02
233.062	22249.25
233.135	22226.93
233.207	22192.22
233.279	22172.07
233.351	22150.57
233.424	22113.74
233.496	22078.75
233.568	22078.41
233.64	22040.96
233.713	22014.83
233.785	21986.39
233.857	21951.01
233.929	21899.04
234.001	21898.51
234.074	21906.37
234.146	21851.13
234.218	21817.34
234.29	21779.26
234.362	21753.08
234.434	21711.2
234.507	21670.42
234.579	21617.35
234.651	21583.85
234.723	21570.93
234.795	21547.99
234.867	21521.04
234.939	21522.59
235.012	21494.39
235.084	21466.24
235.156	21457.03
235.228	21417.61
235.3	21381.36
235.372	21360.54
235.444	21350.85
235.516	21283.76
235.588	21255.66
235.66	21232.14
235.732	21198.4
235.804	21238.79
235.876	21213.78
235.948	21194.93
236.02	21167.9
236.092	21136.33
236.164	21105.19
236.236	21057.82
236.308	21015.16
236.38	20981.52
236.452	20924.22
236.524	20891.69
236.596	20873.28
236.668	20840.45
236.74	20820.84
236.812	20788.36
236.884	20768.36
236.956	20737.61
237.028	20706.57
237.1	20654.09
237.172	20639.82
237.244	20625.27
237.316	20546.03
237.388	20499.76
237.46	20462.51
237.532	20446.08
237.604	20413.98
237.675	20392.34
237.747	20371.19
237.819	20332.73
237.891	20297.07
237.963	20268.25
238.035	20228.15
238.107	20149.31
238.178	20134.47
238.25	20092.3
238.322	20081.99
238.394	20024.74
238.466	19984.3
238.538	19954.38
238.609	19932.93
238.681	19881.95
238.753	19828.26
238.825	19792.21
238.897	19773.03
238.968	19758.33
239.04	19704.6
239.112	19698.77
239.184	19653.33
239.255	19612.08
239.327	19586.1
239.399	19554.2
239.471	19520.42
239.542	19499.17
239.614	19489.77
239.686	19427.03
239.758	19399.41
239.829	19345.1
239.901	19316.38
239.973	19286.46
240.044	19260.24
240.116	19226.46
240.188	19185.21
240.259	19152.1
240.331	19113.94
240.403	19072.4
240.474	19013.17
240.546	18967.2
240.618	18909.66
240.689	18860.94
240.761	18824.03
240.833	18807.45
240.904	18767.07
240.976	18729.48
241.048	18698.73
241.119	18667.8
241.191	18641.29
241.262	18622.01
241.334	18583.56
241.405	18550.5
241.477	18502.89
241.549	18464.43
241.62	18424.87
241.692	18398.61
241.763	18375.96
241.835	18331.86
241.906	18309.98
241.978	18250.52
242.049	18241.5
242.121	18219.58
242.192	18207.82
242.264	18159.53
242.335	18097.08
242.407	18072.5
242.478	18039.25
242.55	18007.06
242.621	17957.23
242.693	17915.25
242.764	17876.27
242.836	17840.17
242.907	17805.91
242.979	17781.09
243.05	17747.11
243.122	17708.41
243.193	17669.14
243.264	17609.33
243.336	17573.43
243.407	17546.15
243.479	17546.44
243.55	17512.51
243.622	17480.85
243.693	17441.72
243.764	17422.15
243.836	17379.84
243.907	17347.45
243.978	17311.69
244.05	17278.87
244.121	17230.15
244.192	17203.45
244.264	17141.28
244.335	17097.86
244.407	17045.76
244.478	17017.71
244.549	16978.19
244.62	16932.69
244.692	16899.63
244.763	16877.94
244.834	16834.04
244.906	16783.05
244.977	16747.63
245.048	16727.63
245.119	16687.33
245.191	16644.44
245.262	16591.38
245.333	16579.86
245.405	16538.79
245.476	16508.33
245.547	16478.02
245.618	16458.02
245.689	16421.97
245.761	16404.86
245.832	16379.17
245.903	16357.72
245.974	16326.2
246.045	16288.12
246.117	16278.19
246.188	16226.72
246.259	16174.66
246.33	16148.01
246.401	16110.51
246.473	16061.59
246.544	16011.13
246.615	15983.65
246.686	15944.23
246.757	15926.25
246.828	15884.12
246.899	15868.07
246.97	15811.92
247.042	15775.53
247.113	15748.63
247.184	15738.56
247.255	15700.34
247.326	15669.25
247.397	15625.05
247.468	15598.73
247.539	15575.16
247.61	15530.53
247.681	15518.09
247.752	15511.1
247.823	15462.51
247.894	15441.74
247.965	15398.6
248.037	15368.08
248.108	15319.3
248.179	15292.65
248.25	15266.23
248.321	15246.18
248.392	15201.69
248.463	15203.52
248.534	15162.21
248.605	15146.84
248.675	15113.82
248.746	15090.68
248.817	15072.22
248.888	15058.63
248.959	15002.81
249.03	14980.35
249.101	14955.38
249.172	14904.95
249.243	14844.46
249.314	14836.65
249.385	14801.27
249.456	14787.43
249.527	14756.87
249.598	14731.03
249.669	14702.4
249.739	14674.1
249.81	14647.74
249.881	14601.03
249.952	14568.3
250.023	14538.31
250.094	14485.53
250.165	14437.76
250.235	14405.65
250.306	14370.13
250.377	14321.87
250.448	14296.85
250.519	14240.07
250.59	14227.2
250.66	14208.25
250.731	14199.38
250.802	14171.57
250.873	14154.65
250.944	14128.95
251.014	14096.9
251.085	14104.51
251.156	14080.46
251.227	14070.72
251.297	14064.16
251.368	14059.1
251.439	14046.81
251.51	14038.37
251.58	14011.76
251.651	13987.85
251.722	13979.18
251.792	13941.87
251.863	13923.93
251.934	13921.62
252.005	13933.38
252.075	13904.89
252.146	13893.66
252.217	13885.95
252.287	13872.74
252.358	13842.46
252.429	13840.92
252.499	13810.17
252.57	13783.89
252.641	13773.29
252.711	13745.91
252.782	13694.66
252.852	13694.66
252.923	13665.21
252.994	13639.85
253.064	13618.59
253.135	13580.56
253.205	13554.72
253.276	13555.73
253.347	13557.37
253.417	13529.84
253.488	13505.55
253.558	13480.24
253.629	13451.89
253.699	13431.6
253.77	13418.34
253.841	13391.93
253.911	13365.85
253.982	13351
254.052	13334.32
254.123	13316.53
254.193	13294.26
254.264	13320.05
254.334	13279.36
254.405	13247.64
254.475	13219.15
254.546	13203.2
254.616	13204.88
254.687	13184.83
254.757	13161.55
254.827	13127.61
254.898	13106.35
254.968	13083.12
255.039	13045.08
255.109	13037.08
255.18	13009.89
255.25	12962.21
255.321	12950.02
255.391	12911.98
255.461	12908.75
255.532	12857.95
255.602	12824.92
255.673	12782.21
255.743	12738.97
255.813	12687.54
255.884	12680.74
255.954	12670.47
256.024	12666.57
256.095	12643.43
256.165	12608.48
256.235	12600.63
256.306	12571.65
256.376	12567.17
256.446	12555.75
256.517	12548.03
256.587	12540.08
256.657	12517.47
256.728	12503.01
256.798	12483.54
256.868	12460.69
256.938	12429.89
257.009	12425.21
257.079	12414.94
257.149	12429.69
257.219	12392.14
257.29	12388.29
257.36	12345.39
257.43	12331.21
257.5	12287.25
257.571	12262.91
257.641	12245.8
257.711	12206.56
257.781	12202.75
257.852	12178.31
257.922	12131.6
257.992	12113
258.062	12087.06
258.132	12077.57
258.202	12052.65
258.273	12037.08
258.343	12037.47
258.413	12017.17
258.483	11998.37
258.553	11965.4
258.623	11926.84
258.693	11915.51
258.764	11913.63
258.834	11917.73
258.904	11900.28
258.974	11872.47
259.044	11856.57
259.114	11841.34
259.184	11822.83
259.254	11803.6
259.324	11765.08
259.394	11759.35
259.464	11761.76
259.535	11741.47
259.605	11717.56
259.675	11694.38
259.745	11679.92
259.815	11653.74
259.885	11624.54
259.955	11634.71
260.025	11611.29
260.095	11600.2
260.165	11582.7
260.235	11581.26
260.305	11548.48
260.375	11515.66
260.445	11523.85
260.515	11522.36
260.585	11525.83
260.655	11504.96
260.725	11488.67
260.795	11478.89
260.865	11485.73
260.934	11456.24
261.004	11445.1
261.074	11427.61
261.144	11426.31
261.214	11420.38
261.284	11398.74
261.354	11393.63
261.424	11366.11
261.494	11369.34
261.564	11350.44
261.634	11341.62
261.703	11298.88
261.773	11292.56
