Data from 20250703_urea_0.1M_MAYP1162681_23-41-05-101.txt Node
Date: Thu Jul 03 23:41:05 BST 2025
User: adleo
Spectrometer: MAYP116268
Trigger mode: 0
Integration Time (sec): 1.000000E0
Scans to average: 1
Electric dark correction enabled: true
Nonlinearity correction enabled: true
Boxcar width: 10
XAxis mode: Wavelengths
Number of Pixels in Spectrum: 2068
>>>>>Begin Spectral Data<<<<<
179.565	1360.76
179.642	1422.95
179.718	1474.72
179.795	1518.25
179.871	1557.1
179.948	1574.43
180.024	1599.54
180.101	1628.01
180.177	1644.71
180.254	1671.12
180.33	1695.59
180.407	1761.27
180.483	1868.79
180.56	1972.9
180.636	2065.4
180.712	2052.26
180.789	2061.49
180.865	2074.57
180.942	2084.51
181.018	2094.83
181.095	2111.81
181.171	2118
181.248	2121
181.324	2136.56
181.4	2146.26
181.477	2159.2
181.553	2176.51
181.63	2198.12
181.706	2214.39
181.782	2225.95
181.859	2226.04
181.935	2232.52
182.011	2230.61
182.088	2249.32
182.164	2266.17
182.24	2281.05
182.317	2291.43
182.393	2289.33
182.469	2307.18
182.546	2321.5
182.622	2328.93
182.698	2323.07
182.775	2337.97
182.851	2353.39
182.927	2346.63
183.003	2342.06
183.08	2335.35
183.156	2344.35
183.232	2341.59
183.308	2328.88
183.385	2337.3
183.461	2354.25
183.537	2356.01
183.613	2369.76
183.69	2357.72
183.766	2348.06
183.842	2359.62
183.918	2366.57
183.995	2384.09
184.071	2387.38
184.147	2381.43
184.223	2365.82
184.299	2378.44
184.375	2363.16
184.452	2369.02
184.528	2420.92
184.604	2433.29
184.68	2445.24
184.756	2454.71
184.832	2460.19
184.908	2464.47
184.985	2460.95
185.061	2444.1
185.137	2456.29
185.213	2444.77
185.289	2448.24
185.365	2440.96
185.441	2436.29
185.517	2450.63
185.593	2444.25
185.669	2440.35
185.745	2452.49
185.822	2471.62
185.898	2462.23
185.974	2473.85
186.05	2466.08
186.126	2432.28
186.202	2422.09
186.278	2421
186.354	2409.81
186.43	2417.14
186.506	2415.57
186.582	2418.33
186.658	2427.66
186.734	2404.19
186.81	2407.34
186.886	2409.57
186.962	2423.23
187.038	2421.81
187.114	2412.09
187.19	2420.9
187.266	2409.14
187.341	2408.47
187.417	2401.86
187.493	2402.95
187.569	2404.57
187.645	2397.43
187.721	2383.91
187.797	2393.43
187.873	2394.76
187.949	2389.76
188.025	2384.86
188.101	2388.85
188.176	2393.57
188.252	2386.19
188.328	2392.9
188.404	2391.8
188.48	2386.66
188.556	2378.76
188.632	2380.05
188.707	2379.95
188.783	2377.24
188.859	2372.24
188.935	2364.1
189.011	2374.53
189.086	2369.81
189.162	2363.15
189.238	2361.86
189.314	2358.63
189.39	2351.87
189.465	2344.54
189.541	2363.87
189.617	2344.3
189.693	2340.59
189.768	2345.07
189.844	2374.54
189.92	2364.22
189.996	2371.98
190.071	2385.64
190.147	2384.21
190.223	2390.12
190.298	2382.31
190.374	2367.65
190.45	2381.92
190.526	2389.45
190.601	2381.73
190.677	2380.69
190.753	2410.17
190.828	2413.65
190.904	2428.26
190.98	2444.16
191.055	2456.83
191.131	2447.21
191.207	2473.11
191.282	2481.44
191.358	2468.87
191.433	2448.15
191.509	2463.37
191.585	2462.09
191.66	2461.99
191.736	2471.04
191.811	2461.76
191.887	2476.47
191.963	2501.66
192.038	2509.8
192.114	2508.95
192.189	2513.37
192.265	2512.52
192.34	2487.03
192.416	2485.13
192.491	2481.93
192.567	2482.7
192.642	2485.17
192.718	2482.32
192.793	2463.65
192.869	2460.7
192.944	2462.27
193.02	2475.03
193.095	2481.17
193.171	2485.89
193.246	2485.7
193.322	2481.22
193.397	2485.13
193.473	2473.31
193.548	2452.31
193.624	2456.55
193.699	2454.79
193.775	2471.37
193.85	2472.32
193.925	2485.99
194.001	2486.79
194.076	2479.84
194.152	2468.89
194.227	2461.22
194.302	2452.94
194.378	2457.89
194.453	2453.27
194.529	2468.27
194.604	2448.09
194.679	2441.18
194.755	2421.29
194.83	2436.29
194.905	2435.82
194.981	2446.39
195.056	2439.3
195.131	2444.53
195.207	2446.01
195.282	2438.77
195.357	2418.91
195.433	2433.48
195.508	2416.29
195.583	2424.72
195.659	2437
195.734	2445
195.809	2441.67
195.884	2451.43
195.96	2453.9
196.035	2471.19
196.11	2467
196.185	2485.04
196.261	2490.61
196.336	2525.18
196.411	2511.12
196.486	2518.41
196.561	2512.08
196.637	2519.98
196.712	2539.98
196.787	2541.36
196.862	2558.27
196.937	2569.03
197.013	2576.41
197.088	2592.89
197.163	2616.19
197.238	2635.78
197.313	2637.54
197.388	2654.59
197.464	2687.19
197.539	2699.76
197.614	2693.38
197.689	2708.1
197.764	2725.16
197.839	2745.88
197.914	2737.59
197.989	2761.47
198.065	2773.38
198.14	2826.35
198.215	2854.75
198.29	2868.39
198.365	2883.35
198.44	2892.93
198.515	2924.73
198.59	2938.98
198.665	2967.01
198.74	2975.26
198.815	2977.69
198.89	3001.72
198.965	3035.87
199.04	3029.67
199.115	3047.93
199.19	3092.83
199.265	3096.27
199.34	3105.9
199.415	3145.7
199.49	3171.2
199.565	3179.93
199.64	3208.59
199.715	3206.78
199.79	3215.22
199.865	3218.46
199.94	3217.65
200.015	3252.19
200.09	3258.01
200.165	3266.03
200.24	3272.76
200.315	3322.33
200.39	3335.59
200.464	3344.56
200.539	3344.61
200.614	3363.97
200.689	3389.75
200.764	3401.68
200.839	3419.95
200.914	3425.24
200.989	3409.73
201.063	3424.04
201.138	3405.97
201.213	3407.36
201.288	3384.74
201.363	3390.99
201.438	3395.76
201.512	3413.12
201.587	3398.13
201.662	3404.72
201.737	3421.86
201.812	3428.54
201.886	3386.74
201.961	3403.12
202.036	3393.15
202.111	3388.42
202.186	3360.05
202.26	3340.43
202.335	3315.23
202.41	3312.32
202.485	3297.82
202.559	3276.5
202.634	3250.5
202.709	3260.7
202.784	3240.71
202.858	3248.1
202.933	3231.93
203.008	3228.59
203.082	3204.89
203.157	3205.56
203.232	3165.78
203.306	3146.36
203.381	3118.54
203.456	3099.75
203.53	3082.28
203.605	3068.93
203.68	3054.95
203.754	3055.86
203.829	3053.57
203.904	3045.22
203.978	3044.31
204.053	3062.2
204.127	3067.59
204.202	3081.85
204.277	3082.37
204.351	3095.82
204.426	3105.8
204.5	3118.58
204.575	3107.09
204.65	3149.03
204.724	3166.5
204.799	3198.64
204.873	3225.9
204.948	3259.25
205.022	3282.67
205.097	3306.16
205.171	3355.84
205.246	3403.21
205.32	3444.38
205.395	3486.88
205.469	3521.33
205.544	3575.5
205.618	3609.03
205.693	3675.14
205.767	3715.54
205.842	3796.15
205.916	3847.8
205.991	3896.88
206.065	3968.33
206.14	4048.06
206.214	4109.77
206.289	4173.52
206.363	4264.05
206.438	4342.24
206.512	4431.43
206.586	4529.84
206.661	4621.66
206.735	4682.57
206.81	4774.33
206.884	4879.93
206.958	4956.25
207.033	5069.87
207.107	5172.82
207.181	5301.3
207.256	5391.84
207.33	5515.29
207.405	5631.86
207.479	5754.32
207.553	5871.46
207.628	5959.4
207.702	6081.53
207.776	6189.55
207.851	6310.73
207.925	6439.8
207.999	6551.33
208.073	6661.92
208.148	6781.07
208.222	6890.17
208.296	7046.59
208.371	7182.91
208.445	7317.37
208.519	7475.1
208.593	7609.7
208.668	7731.55
208.742	7859.64
208.816	7988.55
208.89	8132.67
208.965	8260.1
209.039	8398.66
209.113	8542.43
209.187	8691.17
209.261	8818.83
209.336	8969.2
209.41	9122.19
209.484	9256.72
209.558	9410.94
209.632	9551.49
209.707	9696.43
209.781	9852.75
209.855	10004.53
209.929	10155.22
210.003	10290.49
210.077	10411.89
210.151	10593.97
210.226	10765.93
210.3	10922.98
210.374	11078.03
210.448	11208.91
210.522	11348.57
210.596	11495.32
210.67	11635.42
210.744	11817.59
210.818	11982.37
210.892	12135.74
210.966	12249.06
211.041	12382.62
211.115	12500.57
211.189	12653.37
211.263	12798.26
211.337	12926.1
211.411	13058.62
211.485	13171.61
211.559	13303.45
211.633	13428.73
211.707	13509.33
211.781	13623.39
211.855	13708.04
211.929	13816.69
212.003	13915.32
212.077	14048.37
212.151	14174.18
212.225	14293.44
212.299	14386.58
212.373	14482.41
212.447	14581.71
212.52	14721.69
212.594	14841.14
212.668	14961.17
212.742	15050.2
212.816	15150.94
212.89	15243.83
212.964	15342.83
213.038	15447.14
213.112	15569.04
213.186	15686.84
213.26	15775.54
213.333	15826.39
213.407	15926.79
213.481	16023.48
213.555	16128.56
213.629	16196.66
213.703	16273.39
213.777	16364.58
213.85	16440.68
213.924	16568.59
213.998	16656.26
214.072	16738.19
214.146	16801.76
214.219	16882.06
214.293	16960.61
214.367	17042.21
214.441	17137.44
214.515	17212.19
214.588	17273.01
214.662	17311.66
214.736	17369.01
214.81	17451.08
214.883	17546.65
214.957	17609.11
215.031	17677.88
215.105	17727.52
215.178	17788.29
215.252	17847.52
215.326	17889.69
215.4	17935.61
215.473	17943.18
215.547	17993.59
215.621	18044.24
215.694	18121.97
215.768	18169.05
215.842	18223.79
215.915	18269.29
215.989	18299.89
216.063	18341.23
216.136	18390.1
216.21	18450.96
216.284	18518.09
216.357	18579.34
216.431	18629.41
216.504	18690.76
216.578	18767.04
216.652	18834.07
216.725	18885.06
216.799	18944.72
216.873	19011.46
216.946	19075.5
217.02	19131.45
217.093	19170.97
217.167	19197.76
217.24	19229.47
217.314	19277.81
217.387	19322.77
217.461	19362.81
217.535	19437.8
217.608	19478.95
217.682	19528.2
217.755	19587.86
217.829	19627.43
217.902	19665.54
217.976	19710.26
218.049	19756.86
218.123	19788.33
218.196	19840.57
218.27	19884.52
218.343	19918.45
218.417	19965.68
218.49	20012.47
218.563	20074.3
218.637	20126.2
218.71	20190.97
218.784	20239.41
218.857	20290.25
218.931	20345.48
219.004	20405.28
219.077	20449.96
219.151	20500.99
219.224	20537.09
219.298	20577.86
219.371	20640.03
219.444	20665.43
219.518	20706.68
219.591	20745.43
219.665	20818.21
219.738	20849.1
219.811	20882.98
219.885	20933.4
219.958	20979.28
220.031	21012.15
220.105	21050.32
220.178	21098.32
220.251	21141.51
220.325	21191.83
220.398	21242.34
220.471	21282.39
220.544	21328.28
220.618	21361.78
220.691	21401.15
220.764	21444.72
220.838	21478.46
220.911	21508.69
220.984	21571.73
221.057	21617.9
221.131	21650.49
221.204	21642.48
221.277	21707.51
221.35	21773.3
221.424	21801.02
221.497	21823.05
221.57	21858.28
221.643	21904.22
221.716	21938.16
221.79	21961.68
221.863	21993.11
221.936	22010.56
222.009	22035.1
222.082	22054.96
222.155	22068.98
222.229	22116.08
222.302	22145.63
222.375	22168.48
222.448	22187.62
222.521	22207.09
222.594	22226.42
222.667	22235.49
222.74	22276.89
222.814	22298.64
222.887	22310.45
222.96	22340.82
223.033	22370.61
223.106	22405.85
223.179	22423.35
223.252	22441.91
223.325	22456.28
223.398	22471.32
223.471	22496.78
223.544	22513.26
223.617	22531.87
223.69	22559.45
223.763	22547.54
223.837	22569.43
223.91	22598.55
223.983	22597.49
224.056	22601.01
224.129	22614.07
224.202	22653.22
224.275	22655.43
224.348	22647.57
224.42	22645.41
224.493	22634.36
224.566	22635.14
224.639	22640.01
224.712	22637.5
224.785	22650.08
224.858	22656.54
224.931	22648.64
225.004	22643.38
225.077	22655.43
225.15	22632.24
225.223	22632.05
225.296	22671.64
225.369	22656.26
225.442	22644.44
225.514	22662.19
225.587	22673.18
225.66	22684.65
225.733	22685.14
225.806	22694.87
225.879	22689.76
225.952	22685.62
226.025	22704.9
226.097	22719.03
226.17	22725.83
226.243	22706.4
226.316	22692.9
226.389	22700.27
226.461	22719.27
226.534	22719.37
226.607	22703.27
226.68	22728.58
226.753	22733.44
226.825	22712.66
226.898	22733.1
226.971	22730.07
227.044	22730.74
227.117	22724.43
227.189	22720.91
227.262	22723.32
227.335	22720.71
227.407	22720.23
227.48	22718.06
227.553	22711.41
227.626	22705.33
227.698	22692.08
227.771	22691.5
227.844	22685.62
227.916	22668.21
227.989	22633.21
228.062	22621.93
228.134	22645.46
228.207	22644.64
228.28	22612.87
228.352	22590.01
228.425	22576.76
228.498	22577.24
228.57	22556.51
228.643	22566.1
228.716	22554.77
228.788	22533.9
228.861	22527.19
228.934	22531.2
229.006	22522.13
229.079	22509.55
229.151	22488.34
229.224	22464.96
229.296	22462.64
229.369	22477.15
229.442	22484.14
229.514	22477.64
229.587	22480.05
229.659	22448.81
229.732	22434.97
229.804	22447.74
229.877	22469.78
229.949	22470.5
230.022	22485.74
230.094	22476.62
230.167	22473.68
230.239	22455.8
230.312	22450.74
230.384	22450.35
230.457	22439.79
230.529	22434.87
230.602	22425.19
230.674	22418.53
230.747	22426.58
230.819	22424.27
230.892	22387.68
230.964	22380.78
231.037	22367.38
231.109	22355.48
231.181	22345.98
231.254	22318.21
231.326	22301.44
231.399	22280.42
231.471	22249.95
231.544	22200.97
231.616	22195.91
231.688	22173.06
231.761	22142.78
231.833	22123.55
231.905	22083.25
231.978	22055.77
232.05	22024.39
232.122	22008.82
232.195	21985.54
232.267	21961.15
232.339	21935.79
232.412	21919.31
232.484	21897.42
232.556	21872.89
232.629	21877.66
232.701	21869.85
232.773	21850.81
232.846	21827.29
232.918	21806.75
232.99	21803.28
233.062	21796.68
233.135	21769.3
233.207	21723.6
233.279	21716.95
233.351	21699.89
233.424	21674.25
233.496	21651.74
233.568	21662.49
233.64	21618.29
233.713	21604.79
233.785	21595.68
233.857	21575.73
233.929	21540.11
234.001	21533.55
234.074	21535.91
234.146	21478.75
234.218	21450.79
234.29	21424.23
234.362	21393.97
234.434	21355.36
234.507	21316.41
234.579	21270.1
234.651	21238.09
234.723	21231.83
234.795	21208.16
234.867	21179.97
234.939	21167.39
235.012	21144.98
235.084	21120.73
235.156	21119.24
235.228	21087.72
235.3	21050.32
235.372	21020.68
235.444	21008.34
235.516	20948.33
235.588	20915.85
235.66	20894.83
235.732	20848.9
235.804	20891.08
235.876	20866.4
235.948	20847.9
236.02	20809.97
236.092	20785.39
236.164	20752.57
236.236	20713.1
236.308	20682.3
236.38	20657
236.452	20619.55
236.524	20593.05
236.596	20572.13
236.668	20544.95
236.74	20502.49
236.812	20473.72
236.884	20454.59
236.956	20423.7
237.028	20390.11
237.1	20338.01
237.172	20322.25
237.244	20315.12
237.316	20240.08
237.388	20208.56
237.46	20168.99
237.532	20161.19
237.604	20119.65
237.675	20112.8
237.747	20092.37
237.819	20052.08
237.891	20008.76
237.963	19969.82
238.035	19927.46
238.107	19858.84
238.178	19839.85
238.25	19809.83
238.322	19799.37
238.394	19746.36
238.466	19711.76
238.538	19688.19
238.609	19668.44
238.681	19605.16
238.753	19562.95
238.825	19527
238.897	19494.18
238.968	19482.37
239.04	19430.81
239.112	19428.64
239.184	19387.44
239.255	19353.75
239.327	19327.97
239.399	19306
239.471	19286.96
239.542	19259.64
239.614	19240.51
239.686	19169.62
239.758	19149.48
239.829	19105.53
239.901	19085.58
239.973	19043.27
240.044	19013.44
240.116	18979.94
240.188	18950.12
240.259	18915.27
240.331	18864.77
240.403	18828.44
240.474	18767.23
240.546	18726.23
240.618	18662.95
240.689	18615.2
240.761	18576.69
240.833	18553.46
240.904	18516.5
240.976	18473.85
241.048	18439.74
241.119	18411.54
241.191	18394.44
241.262	18376.22
241.334	18336.37
241.405	18299.74
241.477	18268.42
241.549	18230.54
241.62	18188.33
241.692	18161.1
241.763	18133.34
241.835	18108.91
241.906	18077.97
241.978	18029.3
242.049	18013.78
242.121	17999.23
242.192	17978.26
242.264	17936.58
242.335	17885.59
242.407	17858.51
242.478	17825.69
242.55	17794.46
242.621	17750.03
242.693	17706.12
242.764	17659.23
242.836	17618.66
242.907	17590.85
242.979	17561.26
243.05	17527.53
243.122	17514.18
243.193	17490.27
243.264	17439.24
243.336	17398.13
243.407	17372.2
243.479	17363.57
243.55	17326.9
243.622	17293.65
243.693	17256.63
243.764	17233.84
243.836	17187.57
243.907	17149.06
243.978	17111.67
244.05	17082.6
244.121	17034.7
244.192	17012.77
244.264	16965.35
244.335	16930.36
244.407	16874.45
244.478	16846.69
244.549	16814.74
244.62	16759.75
244.692	16718.93
244.763	16694.39
244.834	16661.62
244.906	16620.61
244.977	16592.65
245.048	16575.3
245.119	16540.41
245.191	16497.18
245.262	16437.07
245.333	16428.21
245.405	16383.87
245.476	16353.36
245.547	16318.8
245.618	16298.94
245.689	16258.21
245.761	16232
245.832	16197.15
245.903	16176.52
245.974	16149.63
246.045	16105.81
246.117	16090.24
246.188	16040.5
246.259	15990.57
246.33	15952.59
246.401	15920.87
246.473	15870.12
246.544	15833.78
246.615	15807.12
246.686	15776.81
246.757	15767.84
246.828	15712.75
246.899	15707.78
246.97	15662.81
247.042	15620.73
247.113	15590.32
247.184	15582.51
247.255	15542.55
247.326	15516.57
247.397	15487.65
247.468	15445.28
247.539	15419.64
247.61	15379.78
247.681	15363.53
247.752	15356.4
247.823	15312.2
247.894	15282.45
247.965	15245.87
248.037	15210.25
248.108	15160.31
248.179	15128.3
248.25	15090.66
248.321	15079.71
248.392	15035.42
248.463	15024.19
248.534	14990.88
248.605	14972.22
248.675	14930.87
248.746	14910.19
248.817	14883.63
248.888	14856.73
248.959	14813.15
249.03	14795.75
249.101	14769.58
249.172	14734.39
249.243	14681.65
249.314	14669.98
249.385	14639.81
249.456	14617.15
249.527	14583.12
249.598	14562.01
249.669	14532.65
249.739	14511.1
249.81	14479.38
249.881	14431.51
249.952	14405.63
250.023	14382.83
250.094	14342.38
250.165	14316.21
250.235	14281.02
250.306	14251.85
250.377	14214.35
250.448	14194.83
250.519	14142.04
250.59	14126.95
250.66	14097.21
250.731	14093.88
250.802	14066.65
250.873	14046.88
250.944	14021.96
251.014	13977.85
251.085	13976.74
251.156	13953.84
251.227	13942.66
251.297	13940.06
251.368	13930.99
251.439	13911.91
251.51	13902.5
251.58	13868.47
251.651	13832.99
251.722	13821.86
251.792	13785.99
251.863	13762.13
251.934	13760.05
252.005	13767
252.075	13740.34
252.146	13726.02
252.217	13704.28
252.287	13693.43
252.358	13668.61
252.429	13667.64
252.499	13655.21
252.57	13637.13
252.641	13622.57
252.711	13596.35
252.782	13551.37
252.852	13548.67
252.923	13528.9
252.994	13512.61
253.064	13506.2
253.135	13472.31
253.205	13446.18
253.276	13440.4
253.347	13437.22
253.417	13396.77
253.488	13357.72
253.558	13332.75
253.629	13309.56
253.699	13289.51
253.77	13273.55
253.841	13240.05
253.911	13220.77
253.982	13196.13
254.052	13184.76
254.123	13170.92
254.193	13152.17
254.264	13173.57
254.334	13140.46
254.405	13100.25
254.475	13053.59
254.546	13021.53
254.616	13023.12
254.687	13002.35
254.757	12985.76
254.827	12958.96
254.898	12940.69
254.968	12936.59
255.039	12901.89
255.109	12888.48
255.18	12860.24
255.25	12814.59
255.321	12809.09
255.391	12761.61
255.461	12766.77
255.532	12711.33
255.602	12684.24
255.673	12634.54
255.743	12591.44
255.813	12546.13
255.884	12545.84
255.954	12541.02
256.024	12544.06
256.095	12519.38
256.165	12486.94
256.235	12470.98
256.306	12442.59
256.376	12436.42
256.446	12415.88
256.517	12406.19
256.587	12404.17
256.657	12389.8
256.728	12377.22
256.798	12354.81
256.868	12339.62
256.938	12313.06
257.009	12308.05
257.079	12294.99
257.149	12308.48
257.219	12268.38
257.29	12259.27
257.36	12215.74
257.43	12208.8
257.5	12161.95
257.571	12136.45
257.641	12125.8
257.711	12086.9
257.781	12077.45
257.852	12064.96
257.922	12023.32
257.992	12006.45
258.062	11975.31
258.132	11966.87
258.202	11947.45
258.273	11931.5
258.343	11933.71
258.413	11902.57
258.483	11883.63
258.553	11856.4
258.623	11826.46
258.693	11816.78
258.764	11809.31
258.834	11809.69
258.904	11788.87
258.974	11766.7
259.044	11748
259.114	11736.81
259.184	11720.48
259.254	11695.8
259.324	11647.02
259.394	11635.21
259.464	11631.21
259.535	11609.76
259.605	11580.85
259.675	11551.93
259.745	11535.64
259.815	11499.15
259.885	11475.39
259.955	11480.6
260.025	11453.22
260.095	11436.98
260.165	11423.97
260.235	11426.57
260.305	11400.11
260.375	11370.42
260.445	11376.25
260.515	11378.08
260.585	11371.77
260.655	11362.66
260.725	11355.53
260.795	11355.91
260.865	11365.75
260.934	11336.15
261.004	11328.25
261.074	11312.92
261.144	11317.12
261.214	11311.14
261.284	11300.92
261.354	11297.31
261.424	11268.54
261.494	11271.28
261.564	11249.6
261.634	11244.78
261.703	11204.25
261.773	11196.92
261.843	11183.76
261.913	11159.38
