Data from 20250703_urea_0.1M_MAYP1162681_16-51-05-100.txt Node
Date: Thu Jul 03 16:51:05 BST 2025
User: adleo
Spectrometer: MAYP116268
Trigger mode: 0
Integration Time (sec): 1.000000E0
Scans to average: 1
Electric dark correction enabled: true
Nonlinearity correction enabled: true
Boxcar width: 10
XAxis mode: Wavelengths
Number of Pixels in Spectrum: 2068
>>>>>Begin Spectral Data<<<<<
179.565	1318.46
179.642	1381.5
179.718	1427.16
179.795	1467.79
179.871	1502.21
179.948	1521.4
180.024	1543.8
180.101	1567.15
180.177	1582.36
180.254	1608.29
180.33	1632.55
180.407	1695.71
180.483	1797.86
180.56	1896.5
180.636	1989.95
180.712	1974.34
180.789	1987.56
180.865	1998.64
180.942	2009.2
181.018	2019.61
181.095	2035.36
181.171	2043.21
181.248	2044.11
181.324	2061.66
181.4	2071.84
181.477	2082.54
181.553	2097.14
181.63	2122.78
181.706	2141
181.782	2151.51
181.859	2150.09
181.935	2155.65
182.011	2152.13
182.088	2169.59
182.164	2188.29
182.24	2201.47
182.317	2211.6
182.393	2207.56
182.469	2222.16
182.546	2237.1
182.622	2242.58
182.698	2233.72
182.775	2243.05
182.851	2258.75
182.927	2251.09
183.003	2246.24
183.08	2243.01
183.156	2253.57
183.232	2246.48
183.308	2234.77
183.385	2245.09
183.461	2264.61
183.537	2266.13
183.613	2276.5
183.69	2268.37
183.766	2260.8
183.842	2268.84
183.918	2276.26
183.995	2290.06
184.071	2291.49
184.147	2284.16
184.223	2272.27
184.299	2288.93
184.375	2278.6
184.452	2285.32
184.528	2338.92
184.604	2350.91
184.68	2362.04
184.756	2367.09
184.832	2369.9
184.908	2375.89
184.985	2375.56
185.061	2359.43
185.137	2368.42
185.213	2356.29
185.289	2359
185.365	2347.91
185.441	2344.06
185.517	2357.77
185.593	2352.39
185.669	2351.11
185.745	2363.91
185.822	2382.14
185.898	2373.28
185.974	2382.37
186.05	2374.51
186.126	2336.81
186.202	2328.38
186.278	2323.43
186.354	2314.49
186.43	2326.06
186.506	2323.2
186.582	2319.11
186.658	2324.77
186.734	2303.07
186.81	2307.35
186.886	2308.4
186.962	2322.82
187.038	2322.39
187.114	2311.3
187.19	2320.1
187.266	2310.59
187.341	2310.68
187.417	2301.4
187.493	2301.5
187.569	2304.45
187.645	2297.45
187.721	2286.03
187.797	2296.92
187.873	2302.25
187.949	2298.59
188.025	2288.64
188.101	2293.54
188.176	2298.87
188.252	2295.68
188.328	2303.43
188.404	2303.58
188.48	2298.77
188.556	2293.87
188.632	2292.54
188.707	2295.39
188.783	2293.92
188.859	2288.59
188.935	2274.45
189.011	2283.69
189.086	2275.03
189.162	2266.46
189.238	2262.23
189.314	2260.32
189.39	2249.28
189.465	2243.38
189.541	2261.18
189.617	2245.58
189.693	2241.34
189.768	2246.67
189.844	2271.1
189.92	2264.48
189.996	2274
190.071	2288.18
190.147	2287.9
190.223	2297.94
190.298	2289.95
190.374	2276.05
190.45	2291.42
190.526	2302.74
190.601	2296.41
190.677	2297.65
190.753	2328.56
190.828	2333.65
190.904	2347.69
190.98	2366.83
191.055	2377.25
191.131	2367.35
191.207	2390.19
191.282	2399.23
191.358	2388.38
191.433	2372.95
191.509	2385.18
191.585	2381.94
191.66	2381.89
191.736	2387.08
191.811	2375.23
191.887	2393.51
191.963	2418.84
192.038	2422.5
192.114	2423.08
192.189	2427.5
192.265	2426.65
192.34	2401.26
192.416	2399.74
192.491	2394.41
192.567	2394.83
192.642	2395.45
192.718	2394.36
192.793	2382.6
192.869	2375.89
192.944	2380.12
193.02	2390.27
193.095	2395.64
193.171	2401.12
193.246	2401.02
193.322	2399.64
193.397	2400.02
193.473	2386.07
193.548	2363.6
193.624	2373.46
193.699	2370.31
193.775	2386.79
193.85	2386.89
193.925	2399.46
194.001	2400.03
194.076	2392.84
194.152	2383.03
194.227	2377.98
194.302	2367.85
194.378	2372.18
194.453	2372.56
194.529	2384.42
194.604	2364.95
194.679	2360.19
194.755	2341.34
194.83	2353.34
194.905	2348.49
194.981	2359.1
195.056	2350.35
195.131	2360.44
195.207	2354.15
195.282	2345.44
195.357	2324.54
195.433	2343.91
195.508	2328.77
195.583	2336.53
195.659	2351.77
195.734	2361.05
195.809	2359.43
195.884	2365.47
195.96	2364.14
196.035	2377.66
196.11	2373.56
196.185	2389.94
196.261	2392.6
196.336	2425.88
196.411	2412.59
196.486	2420.54
196.561	2417.45
196.637	2425.77
196.712	2443.02
196.787	2448.25
196.862	2466.11
196.937	2478.48
197.013	2482.96
197.088	2495.62
197.163	2515.58
197.238	2533.26
197.313	2530.45
197.388	2548.59
197.464	2586.94
197.539	2597.75
197.614	2591.56
197.689	2605.51
197.764	2623.52
197.839	2646.1
197.914	2641.48
197.989	2665.73
198.065	2681.87
198.14	2730.78
198.215	2757.74
198.29	2767.71
198.365	2780.95
198.44	2789.05
198.515	2816.4
198.59	2830.8
198.665	2858.53
198.74	2868.35
198.815	2871.83
198.89	2898.14
198.965	2929.23
199.04	2924.22
199.115	2943.71
199.19	2988.71
199.265	2990.71
199.34	2997.53
199.415	3033.73
199.49	3055.13
199.565	3063.57
199.64	3087.99
199.715	3087.8
199.79	3097
199.865	3105.25
199.94	3103.06
200.015	3137.01
200.09	3144.55
200.165	3153.7
200.24	3159.33
200.315	3202.53
200.39	3220.09
200.464	3228.49
200.539	3225.67
200.614	3244.6
200.689	3269.7
200.764	3277.53
200.839	3295.93
200.914	3302.65
200.989	3289.34
201.063	3304.41
201.138	3286.73
201.213	3285.49
201.288	3265.31
201.363	3272.42
201.438	3274.9
201.512	3292.92
201.587	3274.65
201.662	3279.8
201.737	3293.11
201.812	3304.95
201.886	3270.62
201.961	3279.78
202.036	3265.43
202.111	3264.33
202.186	3234.58
202.26	3215.16
202.335	3193.64
202.41	3192.3
202.485	3174.76
202.559	3156.4
202.634	3130.45
202.709	3145.27
202.784	3127.63
202.858	3130.82
202.933	3114.08
203.008	3110.84
203.082	3092.34
203.157	3101.12
203.232	3061.36
203.306	3043.99
203.381	3016.61
203.456	3001.54
203.53	2986.65
203.605	2976.83
203.68	2963.76
203.754	2967.48
203.829	2969.34
203.904	2966.14
203.978	2969.29
204.053	2995.09
204.127	3000.29
204.202	3019.98
204.277	3022.66
204.351	3041.06
204.426	3060.29
204.5	3081.18
204.575	3073.98
204.65	3121.6
204.724	3145.38
204.799	3193.2
204.873	3232.39
204.948	3275.96
205.022	3311.6
205.097	3350.57
205.171	3411.71
205.246	3477.76
205.32	3532.64
205.395	3591.35
205.469	3639.66
205.544	3712.1
205.618	3762.37
205.693	3847.66
205.767	3913.99
205.842	4016.16
205.916	4092.98
205.991	4163.55
206.065	4256.1
206.14	4361.69
206.214	4449.09
206.289	4539.36
206.363	4653.13
206.438	4754.79
206.512	4864.01
206.586	4987.84
206.661	5107.11
206.735	5200.07
206.81	5311.96
206.884	5450.69
206.958	5555.47
207.033	5700.61
207.107	5833.37
207.181	5998.42
207.256	6124.86
207.33	6275.93
207.405	6423.37
207.479	6576.61
207.553	6725.77
207.628	6856.67
207.702	7017
207.776	7160.53
207.851	7311.46
207.925	7474.43
207.999	7627.75
208.073	7787.62
208.148	7947.57
208.222	8098.61
208.296	8292.9
208.371	8474.71
208.445	8641.87
208.519	8838.87
208.593	9014.02
208.668	9169.85
208.742	9333.1
208.816	9500.97
208.89	9685.18
208.965	9858.01
209.039	10041.38
209.113	10229.22
209.187	10414.22
209.261	10575.75
209.336	10756.41
209.41	10950.1
209.484	11125.7
209.558	11323.71
209.632	11497.43
209.707	11681.53
209.781	11867.32
209.855	12053.22
209.929	12242.17
210.003	12423.78
210.077	12588.54
210.151	12812.43
210.226	13022.98
210.3	13211.6
210.374	13403.98
210.448	13573.37
210.522	13746.81
210.596	13916.93
210.67	14085.21
210.744	14300.68
210.818	14500.63
210.892	14693.3
210.966	14843.02
211.041	15019.3
211.115	15160.34
211.189	15345.59
211.263	15513.28
211.337	15671.38
211.411	15843.6
211.485	15986.51
211.559	16142.96
211.633	16296.33
211.707	16402.66
211.781	16546.81
211.855	16657.23
211.929	16799.22
212.003	16918.74
212.077	17067.04
212.151	17224.2
212.225	17377.12
212.299	17499.48
212.373	17624.06
212.447	17744.68
212.52	17915.04
212.594	18039.52
212.668	18179.57
212.742	18293.01
212.816	18422.4
212.89	18547.51
212.964	18665.19
213.038	18789.81
213.112	18929.8
213.186	19062.81
213.26	19167.86
213.333	19253.69
213.407	19380.24
213.481	19494.3
213.555	19623.31
213.629	19721.81
213.703	19813.13
213.777	19922.05
213.85	20009.47
213.924	20143.83
213.998	20260.02
214.072	20352.7
214.146	20443.25
214.219	20546.34
214.293	20640.84
214.367	20729.23
214.441	20839.21
214.515	20929.68
214.588	21001.88
214.662	21058.22
214.736	21133.64
214.81	21230.37
214.883	21321.61
214.957	21398.05
215.031	21472.8
215.105	21530.64
215.178	21602.7
215.252	21675.05
215.326	21725.56
215.4	21791.16
215.473	21825.44
215.547	21872.77
215.621	21934.04
215.694	22016.33
215.768	22064.63
215.842	22119.58
215.915	22182.88
215.989	22225.59
216.063	22277.27
216.136	22336.67
216.21	22400.83
216.284	22481.1
216.357	22539.92
216.431	22591.84
216.504	22656.44
216.578	22740.44
216.652	22802.96
216.725	22853.25
216.799	22919.21
216.873	22980.54
216.946	23036.03
217.02	23082.22
217.093	23127.11
217.167	23151.22
217.24	23184.88
217.314	23233.19
217.387	23284.54
217.461	23327.36
217.535	23389.81
217.608	23423.09
217.682	23465.09
217.755	23517.27
217.829	23546.06
217.902	23596.7
217.976	23635.42
218.049	23668.21
218.123	23686.73
218.196	23746.53
218.27	23784.97
218.343	23799.39
218.417	23834.74
218.49	23863.39
218.563	23924.06
218.637	23979.82
218.71	24051.69
218.784	24096.98
218.857	24132.24
218.931	24181.92
219.004	24214.43
219.077	24248.44
219.151	24283.51
219.224	24317.13
219.298	24343.42
219.371	24385.97
219.444	24397.16
219.518	24432.13
219.591	24470.72
219.665	24540.63
219.738	24570.11
219.811	24585.64
219.885	24630.7
219.958	24671.51
220.031	24703.93
220.105	24733.17
220.178	24757.43
220.251	24758.45
220.325	24786.43
220.398	24828.21
220.471	24844.09
220.544	24877.43
220.618	24893.44
220.691	24935.52
220.764	24964.95
220.838	24996.22
220.911	25010.74
220.984	25064.68
221.057	25094.12
221.131	25121.43
221.204	25099.32
221.277	25130.84
221.35	25188.45
221.424	25203.36
221.497	25226.67
221.57	25253.3
221.643	25275.12
221.716	25295.67
221.79	25310.54
221.863	25316.47
221.936	25329.21
222.009	25338.19
222.082	25349.86
222.155	25353.39
222.229	25366.37
222.302	25376.7
222.375	25382.78
222.448	25396.24
222.521	25392.33
222.594	25400.54
222.667	25394.65
222.74	25406.23
222.814	25405.94
222.887	25398.99
222.96	25413.47
223.033	25412.5
223.106	25410.86
223.179	25410.67
223.252	25415.5
223.325	25419.4
223.398	25433.93
223.471	25439.38
223.544	25443.44
223.617	25445.75
223.69	25445.75
223.763	25431.08
223.837	25432.82
223.91	25434.61
223.983	25418.44
224.056	25403.33
224.129	25397.78
224.202	25405.84
224.275	25398.07
224.348	25376.41
224.42	25356.91
224.493	25334.33
224.566	25319.56
224.639	25314.25
224.712	25307.93
224.785	25285.53
224.858	25275.26
224.931	25256.53
225.004	25223.82
225.077	25207.22
225.15	25161.38
225.223	25152.69
225.296	25160.32
225.369	25124.32
225.442	25104.87
225.514	25088.23
225.587	25080.41
225.66	25070.04
225.733	25059.81
225.806	25052.23
225.879	25039.64
225.952	25016.14
226.025	25013
226.097	25010.44
226.17	24997.32
226.243	24953.02
226.316	24936.23
226.389	24921.95
226.461	24906.75
226.534	24899.8
226.607	24882.39
226.68	24895.08
226.753	24879.44
226.825	24844.99
226.898	24842.48
226.971	24816.43
227.044	24802.39
227.117	24782.27
227.189	24759.55
227.262	24751.1
227.335	24728.47
227.407	24706.91
227.48	24692.63
227.553	24670.34
227.626	24641.73
227.698	24620.31
227.771	24612.49
227.844	24575.16
227.916	24548.04
227.989	24504.53
228.062	24471.68
228.134	24474.29
228.207	24450.79
228.28	24418.38
228.352	24385.67
228.425	24372.02
228.498	24363.72
228.57	24339.65
228.643	24332.85
228.716	24310.37
228.788	24263.14
228.861	24234.29
228.934	24216.35
229.006	24187.85
229.079	24165.51
229.151	24140.14
229.224	24100.49
229.296	24075.56
229.369	24077.97
229.442	24073.19
229.514	24045.12
229.587	24040.93
229.659	23996.74
229.732	23974.22
229.804	23953.19
229.877	23952.08
229.949	23931.73
230.022	23927.96
230.094	23896.28
230.167	23856.87
230.239	23829.05
230.312	23809.27
230.384	23807.68
230.457	23790.8
230.529	23776.62
230.602	23748.07
230.674	23720.92
230.747	23712.24
230.819	23696.95
230.892	23641.64
230.964	23610.19
231.037	23595.15
231.109	23567.23
231.181	23546.73
231.254	23500.92
231.326	23471.22
231.399	23438.71
231.471	23399.17
231.544	23342.94
231.616	23325.34
231.688	23303.3
231.761	23262.75
231.833	23228.85
231.905	23178.07
231.978	23155.89
232.05	23112.45
232.122	23084.67
232.195	23049.71
232.267	23034.77
232.339	22999.86
232.412	22991.71
232.484	22954.87
232.556	22917.55
232.629	22905.88
232.701	22879.99
232.773	22860.32
232.846	22826.33
232.918	22792.44
232.99	22765.73
233.062	22741.76
233.135	22713.22
233.207	22668.67
233.279	22651.03
233.351	22623.55
233.424	22588.93
233.496	22537.3
233.568	22531.8
233.64	22491.26
233.713	22462.09
233.785	22422.99
233.857	22391.7
233.929	22348.8
234.001	22337.13
234.074	22327.3
234.146	22266.56
234.218	22223.7
234.29	22185.38
234.362	22146.24
234.434	22113.02
234.507	22075.18
234.579	22029.63
234.651	21990.92
234.723	21979.54
234.795	21947.77
234.867	21914.08
234.939	21898.8
235.012	21869.78
235.084	21844.81
235.156	21811.17
235.228	21767.64
235.3	21716.36
235.372	21677.89
235.444	21644.49
235.516	21586.6
235.588	21544.76
235.66	21513.96
235.732	21472.89
235.804	21502.83
235.876	21481.09
235.948	21456.46
236.02	21416.94
236.092	21385.03
236.164	21346.28
236.236	21296.78
236.308	21248.15
236.38	21224.92
236.452	21173.83
236.524	21135.51
236.596	21096.42
236.668	21069
236.74	21033.96
236.812	21004.66
236.884	20981.71
236.956	20957.23
237.028	20911.5
237.1	20865.28
237.172	20840.84
237.244	20821.61
237.316	20735.72
237.388	20692.35
237.46	20637.93
237.532	20613.98
237.604	20567.24
237.675	20539.43
237.747	20508.01
237.819	20472.25
237.891	20421.55
237.963	20369.31
238.035	20330.46
238.107	20262.27
238.178	20232.73
238.25	20198.66
238.322	20179.24
238.394	20113.65
238.466	20064.3
238.538	20037.26
238.609	20009.36
238.681	19956.98
238.753	19913.75
238.825	19882.71
238.897	19849.13
238.968	19830.57
239.04	19780.41
239.112	19774.14
239.184	19729.56
239.255	19693.28
239.327	19660.46
239.399	19624.56
239.471	19599.31
239.542	19566.25
239.614	19549.38
239.686	19490.11
239.758	19463.02
239.829	19420.91
239.901	19401.68
239.973	19373.78
240.044	19341.49
240.116	19295.61
240.188	19251.37
240.259	19213.59
240.331	19164.39
240.403	19136.59
240.474	19083.67
240.546	19037.41
240.618	18970.76
240.689	18928.45
240.761	18888.31
240.833	18862.92
240.904	18823.06
240.976	18778.68
241.048	18742.01
241.119	18707.65
241.191	18679.51
241.262	18654.4
241.334	18607.22
241.405	18561.3
241.477	18508.43
241.549	18462.17
241.62	18430.84
241.692	18399.42
241.763	18374.17
241.835	18334.13
241.906	18295.67
241.978	18234.81
242.049	18210.52
242.121	18183.15
242.192	18155.92
242.264	18091.29
242.335	18026.96
242.407	17995.39
242.478	17954.96
242.55	17913.71
242.621	17865.57
242.693	17821.9
242.764	17773.91
242.836	17732.51
242.907	17712.7
242.979	17690.78
243.05	17656.22
243.122	17628.99
243.193	17593.67
243.264	17526.15
243.336	17486.68
243.407	17455.94
243.479	17444.18
243.55	17412.71
243.622	17386.25
243.693	17351.21
243.764	17345.82
243.836	17304.75
243.907	17261.76
243.978	17223.74
244.05	17192.99
244.121	17133.52
244.192	17105.37
244.264	17050.48
244.335	17020.89
244.407	16953.22
244.478	16916.45
244.549	16879.29
244.62	16825.65
244.692	16788.25
244.763	16769.31
244.834	16736.54
244.906	16689.74
244.977	16661.4
245.048	16637.93
245.119	16592.87
245.191	16542.07
245.262	16475.42
245.333	16465.73
245.405	16432.95
245.476	16410.35
245.547	16369.86
245.618	16355.98
245.689	16327.16
245.761	16311.79
245.832	16272.65
245.903	16250.86
245.974	16219.01
246.045	16185.36
246.117	16164.11
246.188	16118.9
246.259	16073.49
246.33	16034.65
246.401	15999.22
246.473	15952.81
246.544	15909.28
246.615	15885.76
246.686	15856.5
246.757	15848.89
246.828	15805.85
246.899	15792.69
246.97	15747.09
247.042	15710.79
247.113	15683.18
247.184	15669.87
247.255	15629.63
247.326	15599.84
247.397	15565.33
247.468	15533.08
247.539	15492.16
247.61	15446.37
247.681	15426.75
247.752	15409.39
247.823	15373.63
247.894	15342.06
247.965	15302.43
248.037	15269.32
248.108	15218.66
248.179	15183.76
248.25	15142.93
248.321	15117.19
248.392	15069.71
248.463	15058.14
248.534	15027.49
248.605	15006.81
248.675	14976.1
248.746	14947.09
248.817	14923.27
248.888	14899.36
248.959	14858.58
249.03	14844.7
249.101	14819.59
249.172	14787.43
249.243	14740.05
249.314	14724.67
249.385	14698.88
249.456	14677.24
249.527	14647.64
249.598	14625.52
249.669	14599.24
249.739	14579.77
249.81	14560.44
249.881	14515.03
249.952	14488.28
250.023	14463.31
250.094	14414.04
250.165	14372.83
250.235	14344.38
250.306	14317.15
250.377	14283.69
250.448	14259.11
250.519	14215.53
250.59	14206.81
250.66	14176.63
250.731	14167.71
250.802	14136.33
250.873	14111.89
250.944	14085.23
251.014	14055.82
251.085	14054.91
251.156	14033.41
251.227	14023.57
251.297	14011.57
251.368	14003.42
251.439	13984
251.51	13980.86
251.58	13950.11
251.651	13919.98
251.722	13913.09
251.792	13870.23
251.863	13838.27
251.934	13828.29
252.005	13830.22
252.075	13801.87
252.146	13788.18
252.217	13769.72
252.287	13763.69
252.358	13738.68
252.429	13737.71
252.499	13708.45
252.57	13689.79
252.641	13685.07
252.711	13654.6
252.782	13613.92
252.852	13611.31
252.923	13589.81
252.994	13559.3
253.064	13554.33
253.135	13511.82
253.205	13477.01
253.276	13468
253.347	13462.36
253.417	13432.03
253.488	13402.87
253.558	13374.52
253.629	13351.14
253.699	13338.99
253.77	13316.24
253.841	13291.27
253.911	13274.11
253.982	13252.8
254.052	13232.17
254.123	13203.97
254.193	13187.05
254.264	13198.04
254.334	13159.71
254.405	13119.8
254.475	13082.2
254.546	13054
254.616	13057.9
254.687	13041.61
254.757	13033.66
254.827	13007.09
254.898	12977.26
254.968	12959.71
255.039	12934.5
255.109	12921.58
255.18	12881.9
255.25	12841.56
255.321	12827.87
255.391	12784.67
255.461	12788.38
255.532	12742.01
255.602	12716.9
255.673	12663.87
255.743	12635.91
255.813	12592.91
255.884	12588.33
255.954	12579.37
256.024	12584.53
256.095	12561.53
256.165	12523.84
256.235	12508.89
256.306	12487.88
256.376	12486.24
256.446	12470.71
256.517	12456.69
256.587	12450.95
256.657	12436.44
256.728	12414.03
256.798	12391.47
256.868	12369.29
256.938	12335.6
257.009	12327.45
257.079	12317.14
257.149	12332.71
257.219	12285.18
257.29	12278.14
257.36	12238.9
257.43	12230.76
257.5	12178.51
257.571	12147.8
257.641	12137.15
257.711	12102.35
257.781	12088.61
257.852	12071.11
257.922	12032.02
257.992	12010.14
258.062	11983.58
258.132	11979.38
258.202	11961.31
258.273	11949.11
258.343	11948.2
258.413	11920.24
258.483	11895.46
258.553	11863.46
258.623	11830.39
258.693	11816.03
258.764	11813.62
258.834	11809.43
258.904	11788.07
258.974	11772.07
259.044	11755.06
259.114	11742.67
259.184	11724.07
259.254	11709.17
259.324	11670.47
259.394	11663.19
259.464	11663.38
259.535	11639.72
259.605	11613.59
259.675	11584.68
259.745	11568.82
259.815	11545.06
259.885	11523.76
259.955	11532.14
260.025	11506.6
260.095	11492.38
260.165	11490.41
260.235	11486.21
260.305	11457.97
260.375	11427.75
260.445	11430.79
260.515	11432.62
260.585	11426.69
260.655	11414.93
260.725	11407.89
260.795	11406.54
260.865	11401.15
260.934	11368.61
261.004	11356.61
261.074	11332.71
261.144	11339.22
261.214	11326.97
261.284	11306.3
261.354	11305.14
261.424	11281.14
261.494	11281.33
261.564	11261.81
261.634	11251.88
261.703	11209.14
261.773	11211.35
261.843	11206.92
