Data from 20250703_urea_0.1M_MAYP1162681_00-41-04-824.txt Node
Date: Fri Jul 04 00:41:04 BST 2025
User: adleo
Spectrometer: MAYP116268
Trigger mode: 0
Integration Time (sec): 1.000000E0
Scans to average: 1
Electric dark correction enabled: true
Nonlinearity correction enabled: true
Boxcar width: 10
XAxis mode: Wavelengths
Number of Pixels in Spectrum: 2068
>>>>>Begin Spectral Data<<<<<
179.565	1348.44
179.642	1410.88
179.718	1459.56
179.795	1503.5
179.871	1542.45
179.948	1563.99
180.024	1586.39
180.101	1610.03
180.177	1626.81
180.254	1655.4
180.33	1681.46
180.407	1747
180.483	1854.1
180.56	1957.92
180.636	2051.79
180.712	2038.09
180.789	2050.51
180.865	2064.2
180.942	2073.23
181.018	2084.03
181.095	2097.88
181.171	2105.3
181.248	2107.58
181.324	2125.76
181.4	2132.56
181.477	2142.27
181.553	2155.06
181.63	2178.89
181.706	2198.35
181.782	2205.01
181.859	2200.68
181.935	2204.63
182.011	2202.63
182.088	2220.05
182.164	2239.19
182.24	2254.74
182.317	2265.73
182.393	2262.12
182.469	2279.63
182.546	2290.86
182.622	2296.62
182.698	2292.57
182.775	2307.66
182.851	2322.55
182.927	2313.46
183.003	2308.56
183.08	2304.52
183.156	2314.37
183.232	2309.13
183.308	2296.38
183.385	2308.46
183.461	2330.31
183.537	2331.55
183.613	2343.97
183.69	2333.64
183.766	2321.17
183.842	2329.69
183.918	2336.83
183.995	2350.01
184.071	2352.68
184.147	2348.63
184.223	2335.74
184.299	2343.45
184.375	2330.74
184.452	2336.12
184.528	2387.59
184.604	2401.29
184.68	2414.19
184.756	2423.81
184.832	2428.61
184.908	2431.61
184.985	2429.57
185.061	2407.86
185.137	2419.57
185.213	2405.39
185.289	2407.72
185.365	2402.68
185.441	2400.01
185.517	2413.44
185.593	2410.54
185.669	2406.16
185.745	2416.58
185.822	2433.81
185.898	2427.57
185.974	2435.33
186.05	2428.04
186.126	2390.43
186.202	2384.43
186.278	2381.01
186.354	2370.67
186.43	2383.53
186.506	2382.92
186.582	2383.91
186.658	2393.53
186.734	2369.16
186.81	2374.92
186.886	2377.44
186.962	2386.48
187.038	2385.15
187.114	2374.72
187.19	2379.19
187.266	2369.87
187.341	2372.53
187.417	2367.72
187.493	2370.68
187.569	2377.96
187.645	2372.3
187.721	2360.87
187.797	2367.92
187.873	2370.72
187.949	2365.49
188.025	2351.73
188.101	2357.25
188.176	2361.24
188.252	2355.72
188.328	2368.86
188.404	2367.19
188.48	2362.72
188.556	2357.38
188.632	2353.91
188.707	2353.81
188.783	2353.81
188.859	2348.82
188.935	2335.54
189.011	2342.96
189.086	2335.4
189.162	2322.54
189.238	2318.83
189.314	2319.93
189.39	2310.26
189.465	2302.5
189.541	2319.74
189.617	2307.89
189.693	2301.65
189.768	2306.84
189.844	2335.89
189.92	2323.71
189.996	2333.18
190.071	2345.23
190.147	2345.65
190.223	2355.46
190.298	2349.65
190.374	2336.04
190.45	2347.22
190.526	2357.12
190.601	2351.13
190.677	2352.12
190.753	2380.27
190.828	2386.36
190.904	2400.31
190.98	2417.45
191.055	2428.07
191.131	2416.78
191.207	2435.11
191.282	2447.48
191.358	2435.68
191.433	2415.58
191.509	2433.23
191.585	2428.9
191.66	2429.71
191.736	2436.66
191.811	2429.95
191.887	2446.52
191.963	2472.9
192.038	2481.75
192.114	2482.32
192.189	2488.84
192.265	2486.75
192.34	2465.17
192.416	2460.89
192.491	2456.79
192.567	2461.99
192.642	2467.08
192.718	2469.79
192.793	2460.37
192.869	2453.99
192.944	2458.27
193.02	2468.37
193.095	2469.56
193.171	2478.65
193.246	2480.98
193.322	2478.7
193.397	2476.08
193.473	2460.84
193.548	2441.7
193.624	2447.22
193.699	2443.7
193.775	2457.7
193.85	2458.84
193.925	2469.27
194.001	2471.18
194.076	2464.03
194.152	2450.03
194.227	2437.65
194.302	2425.42
194.378	2428.09
194.453	2428.42
194.529	2440.09
194.604	2425.23
194.679	2419.19
194.755	2395.06
194.83	2406.01
194.905	2404.25
194.981	2417.01
195.056	2406.87
195.131	2412.44
195.207	2413.73
195.282	2404.64
195.357	2384.35
195.433	2398.3
195.508	2384.78
195.583	2390.92
195.659	2408.16
195.734	2415.92
195.809	2419.44
195.884	2430.72
195.96	2430.91
196.035	2445.77
196.11	2441.15
196.185	2455.86
196.261	2459.29
196.336	2494.75
196.411	2481.27
196.486	2487.13
196.561	2480.65
196.637	2492.74
196.712	2509.18
196.787	2508.51
196.862	2527.08
196.937	2538.07
197.013	2547.08
197.088	2559.69
197.163	2586.04
197.238	2602.48
197.313	2604.87
197.388	2619.01
197.464	2650.08
197.539	2662.98
197.614	2655.13
197.689	2669.94
197.764	2686.43
197.839	2706.62
197.914	2702.29
197.989	2724.78
198.065	2739.59
198.14	2792.9
198.215	2823.78
198.29	2838.94
198.365	2852.28
198.44	2862.52
198.515	2895.22
198.59	2912.72
198.665	2941.46
198.74	2948.99
198.815	2949.76
198.89	2974.73
198.965	3007.59
199.04	3004.59
199.115	3020.41
199.19	3067.61
199.265	3071.52
199.34	3082.48
199.415	3124.99
199.49	3148.26
199.565	3160.09
199.64	3187.22
199.715	3182.69
199.79	3191.94
199.865	3197.09
199.94	3197.14
200.015	3234.4
200.09	3236.5
200.165	3245.42
200.24	3252.34
200.315	3300.38
200.39	3317.51
200.464	3325.76
200.539	3325.66
200.614	3343.36
200.689	3368.31
200.764	3375
200.839	3394.88
200.914	3399.61
200.989	3382.56
201.063	3394.78
201.138	3375.37
201.213	3374.75
201.288	3355
201.363	3359.96
201.438	3360.96
201.512	3379.28
201.587	3360.52
201.662	3366.77
201.737	3377.22
201.812	3383.57
201.886	3344.6
201.961	3354.81
202.036	3342.7
202.111	3339.02
202.186	3310.46
202.26	3293.76
202.335	3272.8
202.41	3268.42
202.485	3252.92
202.559	3235.65
202.634	3213.56
202.709	3224.52
202.784	3207.54
202.858	3211.98
202.933	3190.94
203.008	3187.65
203.082	3169.29
203.157	3170.91
203.232	3131.1
203.306	3115.02
203.381	3089.97
203.456	3069.32
203.53	3054.24
203.605	3038.51
203.68	3024.86
203.754	3028.01
203.829	3025.77
203.904	3014.8
203.978	3015.18
204.053	3032.54
204.127	3034.54
204.202	3047.52
204.277	3044.89
204.351	3054.15
204.426	3065.88
204.5	3078.09
204.575	3065.6
204.65	3102.91
204.724	3120.29
204.799	3154.8
204.873	3177.76
204.948	3207.1
205.022	3227.03
205.097	3251.77
205.171	3305.78
205.246	3354.19
205.32	3394.17
205.395	3432.8
205.469	3464.95
205.544	3519.55
205.618	3553.6
205.693	3615.26
205.767	3653.42
205.842	3733.77
205.916	3779.81
205.991	3830.04
206.065	3900.19
206.14	3980.34
206.214	4038.49
206.289	4097.12
206.363	4183.61
206.438	4260.05
206.512	4343.05
206.586	4445.07
206.661	4533.01
206.735	4591.47
206.81	4673.11
206.884	4771.95
206.958	4844.51
207.033	4956.14
207.107	5053.76
207.181	5178.73
207.256	5264.97
207.33	5382.41
207.405	5494.4
207.479	5621.71
207.553	5730.54
207.628	5813.47
207.702	5929.24
207.776	6027.05
207.851	6141.48
207.925	6264.66
207.999	6372.32
208.073	6478.75
208.148	6590.82
208.222	6689.61
208.296	6839.23
208.371	6977.15
208.445	7104.37
208.519	7255.57
208.593	7382.01
208.668	7496.28
208.742	7614.54
208.816	7743.22
208.89	7878.17
208.965	8000.13
209.039	8129.59
209.113	8276.17
209.187	8428.25
209.261	8553.91
209.336	8704.96
209.41	8851.51
209.484	8973.74
209.558	9122.72
209.632	9261.21
209.707	9402.38
209.781	9551.3
209.855	9691.3
209.929	9834.03
210.003	9966.96
210.077	10097.4
210.151	10283.17
210.226	10440.08
210.3	10602.94
210.374	10751.28
210.448	10883.93
210.522	11015.62
210.596	11146.3
210.67	11272.56
210.744	11446.78
210.818	11600.46
210.892	11739.84
210.966	11845.05
211.041	11980.96
211.115	12097.94
211.189	12247.16
211.263	12378.7
211.337	12498.82
211.411	12641.74
211.485	12751.07
211.559	12875.1
211.633	12983.75
211.707	13054.27
211.781	13186.64
211.855	13259.48
211.929	13355.17
212.003	13439.68
212.077	13561.54
212.151	13689.67
212.225	13809.22
212.299	13906.31
212.373	14004.69
212.447	14098.79
212.52	14244.85
212.594	14355.87
212.668	14477.44
212.742	14568.55
212.816	14674.11
212.89	14769.85
212.964	14861
213.038	14958.32
213.112	15078.11
213.186	15193.22
213.26	15272.75
213.333	15310.06
213.407	15403.86
213.481	15513.28
213.555	15628.78
213.629	15709.8
213.703	15779.55
213.777	15868.28
213.85	15935.28
213.924	16051.96
213.998	16149.85
214.072	16229.33
214.146	16303.65
214.219	16374.6
214.293	16454.7
214.367	16528.11
214.441	16623.82
214.515	16691.01
214.588	16747.98
214.662	16780.51
214.736	16831.93
214.81	16914.54
214.883	17000.38
214.957	17068.53
215.031	17121.01
215.105	17162.7
215.178	17214.22
215.252	17282.18
215.326	17325.69
215.4	17369.12
215.473	17386.18
215.547	17439.04
215.621	17484.68
215.694	17546.51
215.768	17587.04
215.842	17638.8
215.915	17692.87
215.989	17725.01
216.063	17768.96
216.136	17824.58
216.21	17883.66
216.284	17960.38
216.357	18021.58
216.431	18080.62
216.504	18144.52
216.578	18231.5
216.652	18307.55
216.725	18374.44
216.799	18431.83
216.873	18484.7
216.946	18552.74
217.02	18609.08
217.093	18653.22
217.167	18683.43
217.24	18721.84
217.314	18774.03
217.387	18801.69
217.461	18836.87
217.535	18896.29
217.608	18932
217.682	18987.03
217.755	19052.47
217.829	19085.91
217.902	19131.36
217.976	19171.4
218.049	19202.53
218.123	19223.16
218.196	19271.88
218.27	19299.78
218.343	19328.31
218.417	19368.64
218.49	19404.93
218.563	19459.87
218.637	19507.14
218.71	19582.32
218.784	19637.79
218.857	19691.62
218.931	19751.18
219.004	19805.25
219.077	19858.5
219.151	19909.58
219.224	19939.6
219.298	19985.82
219.371	20047.36
219.444	20067.99
219.518	20115.79
219.591	20162.44
219.665	20232.23
219.738	20263.12
219.811	20311.79
219.885	20374.68
219.958	20436.13
220.031	20481.28
220.105	20527.93
220.178	20575.16
220.251	20606.25
220.325	20647.22
220.398	20690.3
220.471	20737.68
220.544	20784.95
220.618	20828.23
220.691	20878.89
220.764	20930.74
220.838	20966.7
220.911	20987.76
220.984	21059.09
221.057	21112.25
221.131	21157.36
221.204	21161.51
221.277	21223.82
221.35	21281.33
221.424	21307.21
221.497	21342.44
221.57	21381.38
221.643	21412.71
221.716	21448.82
221.79	21470.79
221.863	21503.57
221.936	21526.18
222.009	21559.87
222.082	21591.92
222.155	21614.91
222.229	21657.52
222.302	21692.18
222.375	21714.06
222.448	21750.5
222.521	21767.66
222.594	21776.29
222.667	21792.82
222.74	21826.61
222.814	21852.4
222.887	21867.34
222.96	21907.74
223.033	21939.41
223.106	21953.58
223.179	21981.93
223.252	21999.38
223.325	22027.53
223.398	22053.46
223.471	22073.8
223.544	22085.18
223.617	22111.21
223.69	22119.21
223.763	22124.51
223.837	22142.45
223.91	22169.92
223.983	22168.77
224.056	22177.35
224.129	22204.83
224.202	22222.08
224.275	22237.41
224.348	22233.17
224.42	22229.51
224.493	22209.64
224.566	22204.29
224.639	22227.38
224.712	22225.55
224.785	22236.59
224.858	22238.23
224.931	22241.08
225.004	22244.59
225.077	22254.81
225.15	22223.24
225.223	22235.15
225.296	22252.55
225.369	22238.14
225.442	22236.45
225.514	22253.85
225.587	22263.88
225.66	22263.2
225.733	22271.59
225.806	22282.15
225.879	22286.29
225.952	22276.41
226.025	22302.3
226.097	22333.97
226.17	22333.64
226.243	22320.14
226.316	22319.66
226.389	22322.94
226.461	22324.57
226.534	22341.45
226.607	22333.16
226.68	22376.01
226.753	22377.17
226.825	22366.08
226.898	22385.07
226.971	22383.68
227.044	22381.41
227.117	22388.98
227.189	22396.26
227.262	22403.68
227.335	22403.63
227.407	22390.57
227.48	22405.27
227.553	22406.57
227.626	22388.01
227.698	22377.74
227.771	22394.76
227.844	22378.18
227.916	22373.5
227.989	22351.62
228.062	22327.08
228.134	22339.03
228.207	22317.73
228.28	22306.93
228.352	22294.25
228.425	22290.3
228.498	22300.52
228.57	22283.5
228.643	22287.84
228.716	22272.65
228.788	22253.03
228.861	22238.67
228.934	22249.99
229.006	22235.68
229.079	22216.11
229.151	22197.79
229.224	22175.9
229.296	22170.26
229.369	22193.45
229.442	22199.09
229.514	22193.31
229.587	22218.08
229.659	22192.44
229.732	22181.3
229.804	22186.7
229.877	22205.94
229.949	22199.04
230.022	22206.03
230.094	22203.72
230.167	22186.51
230.239	22174.02
230.312	22174.02
230.384	22186.75
230.457	22173.16
230.529	22175.62
230.602	22171.52
230.674	22157.63
230.747	22163.85
230.819	22155.37
230.892	22104.66
230.964	22100.08
231.037	22093.47
231.109	22071.15
231.181	22081.66
231.254	22060.02
231.326	22045.32
231.399	22028.25
231.471	22009.69
231.544	21967.32
231.616	21973.54
231.688	21961.48
231.761	21936.95
231.833	21912.7
231.905	21869.9
231.978	21861.13
232.05	21837.65
232.122	21823.48
232.195	21809.74
232.267	21808.49
232.339	21788.77
232.412	21795.96
232.484	21778.31
232.556	21750.36
232.629	21751.51
232.701	21738.5
232.773	21729.34
232.846	21695.36
232.918	21669.47
232.99	21650.82
233.062	21639.59
233.135	21614.48
233.207	21573.07
233.279	21559.43
233.351	21549.79
233.424	21533.55
233.496	21498.32
233.568	21501.88
233.64	21465.35
233.713	21439.51
233.785	21417.29
233.857	21386.78
233.929	21343.31
234.001	21334.06
234.074	21332.75
234.146	21281.18
234.218	21249.9
234.29	21230.14
234.362	21202.38
234.434	21158.86
234.507	21129.02
234.579	21079.81
234.651	21049.83
234.723	21046.65
234.795	21031.47
234.867	21006.27
234.939	20994.22
235.012	20976
235.084	20945.83
235.156	20930.26
235.228	20907.8
235.3	20873.77
235.372	20846.06
235.444	20833.05
235.516	20769.48
235.588	20742.68
235.66	20723.16
235.732	20688.51
235.804	20718.93
235.876	20710.54
235.948	20711.41
236.02	20681.14
236.092	20670.68
236.164	20639.94
236.236	20599.65
236.308	20570.01
236.38	20545
236.452	20502.88
236.524	20470.97
236.596	20460.42
236.668	20428.51
236.74	20386.3
236.812	20361.72
236.884	20340.08
236.956	20320.71
237.028	20286.69
237.1	20245.14
237.172	20228.47
237.244	20220.28
237.316	20142.01
237.388	20094.3
237.46	20048.56
237.532	20038.01
237.604	19985.34
237.675	19975.46
237.747	19956.52
237.819	19907.9
237.891	19868.23
237.963	19826.07
238.035	19783.37
238.107	19708.1
238.178	19689.35
238.25	19663.18
238.322	19652.87
238.394	19609.79
238.466	19568.44
238.538	19545.17
238.609	19517.75
238.681	19457.75
238.753	19406.96
238.825	19376.16
238.897	19355.34
238.968	19345.32
239.04	19291.35
239.112	19295.01
239.184	19242.48
239.255	19196.75
239.327	19180.56
239.399	19160.03
239.471	19142.15
239.542	19120.95
239.614	19109.43
239.686	19054.54
239.758	19045.39
239.829	18992.67
239.901	18969.29
239.973	18926.79
240.044	18901.78
240.116	18875.28
240.188	18846.75
240.259	18815.18
240.331	18771.04
240.403	18745.5
240.474	18683.63
240.546	18645.8
240.618	18587.53
240.689	18553.75
240.761	18533.37
240.833	18505.61
240.904	18458.24
240.976	18425.18
241.048	18392.12
241.119	18360.75
241.191	18334.25
241.262	18308.08
241.334	18265.38
241.405	18234.35
241.477	18200.76
241.549	18165.48
241.62	18127.85
241.692	18101.29
241.763	18081.34
241.835	18047.95
241.906	18012.33
241.978	17967.13
242.049	17953.73
242.121	17930.41
242.192	17904.05
242.264	17847.86
242.335	17789.11
242.407	17762.75
242.478	17721.83
242.55	17691.96
242.621	17647.19
242.693	17609.4
242.764	17565.65
242.836	17533.69
242.907	17500.34
242.979	17467.57
243.05	17432.01
243.122	17399.67
243.193	17369.89
243.264	17307.14
243.336	17269.84
243.407	17241.31
243.479	17229.07
243.55	17191.52
243.622	17165.26
243.693	17125.98
243.764	17111.28
243.836	17074.07
243.907	17028.34
243.978	16994.65
244.05	16968.09
244.121	16917.35
244.192	16891.61
244.264	16836.09
244.335	16801.63
244.407	16747.7
244.478	16725.09
244.549	16693.91
244.62	16641.14
244.692	16599.64
244.763	16576.7
244.834	16539.49
244.906	16493.75
244.977	16463.97
245.048	16446.76
245.119	16398.52
245.191	16361.98
245.262	16301.74
245.333	16288.24
245.405	16265.11
245.476	16234.74
245.547	16202.16
245.618	16190.79
245.689	16156.66
245.761	16133
245.832	16106.87
245.903	16097.04
245.974	16071.11
246.045	16035.93
246.117	16030.38
246.188	15983.87
246.259	15937.31
246.33	15910.08
246.401	15877.97
246.473	15828.57
246.544	15788.42
246.615	15774.11
246.686	15732.9
246.757	15723.69
246.828	15676.84
246.899	15664.4
246.97	15621.12
247.042	15579.42
247.113	15555.66
247.184	15543.23
247.255	15509.48
247.326	15474.73
247.397	15435.79
247.468	15404.5
247.539	15377.99
247.61	15323.33
247.681	15300.92
247.752	15293.73
247.823	15245.24
247.894	15212.22
247.965	15173.03
248.037	15130.42
248.108	15073.3
248.179	15046.36
248.25	15008.23
248.321	14985.24
248.392	14937.18
248.463	14932.84
248.534	14895.72
248.605	14863.14
248.675	14832.38
248.746	14804.91
248.817	14776.03
248.888	14755.6
248.959	14697.03
249.03	14670.08
249.101	14649.64
249.172	14619.51
249.243	14561.38
249.314	14552.22
249.385	14521.18
249.456	14501.41
249.527	14470.27
249.598	14451.95
249.669	14419.8
249.739	14397.43
249.81	14380.8
249.881	14332.64
249.952	14304.83
250.023	14283.76
250.094	14246.55
250.165	14218.25
250.235	14184.22
250.306	14159.15
250.377	14111.67
250.448	14101.89
250.519	14058.26
250.59	14051.46
250.66	14023.12
250.731	14024.23
250.802	14003.35
250.873	13992.12
250.944	13970.14
251.014	13938.76
251.085	13940.93
251.156	13931.91
251.227	13924.15
251.297	13911.13
251.368	13907.13
251.439	13891.85
251.51	13876.57
251.58	13842.92
251.651	13801.46
251.722	13795.82
251.792	13753.16
251.863	13728.67
251.934	13722.45
252.005	13731.81
252.075	13694.88
252.146	13680.03
252.217	13656.8
252.287	13633.99
252.358	13608.25
252.429	13601.07
252.499	13565.4
252.57	13535.51
252.641	13513.48
252.711	13485.08
252.782	13436.35
252.852	13443.72
252.923	13414.61
252.994	13398.79
253.064	13386.45
253.135	13352.47
253.205	13318.58
253.276	13320.56
253.347	13319.16
253.417	13283.97
253.488	13244.05
253.558	13220.62
253.629	13198.02
253.699	13182.25
253.77	13169.77
253.841	13141.85
253.911	13120.98
253.982	13117.32
254.052	13108.78
254.123	13091.29
254.193	13067.04
254.264	13097.65
254.334	13054.89
254.405	13021.05
254.475	12980.46
254.546	12958.82
254.616	12962.67
254.687	12949.95
254.757	12927.34
254.827	12903.67
254.898	12886.17
254.968	12863.61
255.039	12840.52
255.109	12835.51
255.18	12802.97
255.25	12753.22
255.321	12744.01
255.391	12704.39
255.461	12701.21
255.532	12651.84
255.602	12621.14
255.673	12577.27
255.743	12533.02
255.813	12483.51
255.884	12479.61
255.954	12475.41
256.024	12477.2
256.095	12452.18
256.165	12418.39
256.235	12408.22
256.306	12380.55
256.376	12366.42
256.446	12359.82
256.517	12348.54
256.587	12333.98
256.657	12320.2
256.728	12305.69
256.798	12283.32
256.868	12268.38
256.938	12240.61
257.009	12235.46
257.079	12231.6
257.149	12245.77
257.219	12203.69
257.29	12200.65
257.36	12152.12
257.43	12137.9
257.5	12094.71
257.571	12068.82
257.641	12060.92
257.711	12023.37
257.781	12005.2
257.852	11989.77
257.922	11952.46
257.992	11927.25
258.062	11903.92
258.132	11893.56
258.202	11876.31
258.273	11861.07
258.343	11851.92
258.413	11828.35
258.483	11804.82
258.553	11771.18
258.623	11747.66
258.693	11734.74
258.764	11724.47
258.834	11729.82
258.904	11710.59
258.974	11677.87
259.044	11666.69
259.114	11656.03
259.184	11644.9
259.254	11625.96
259.324	11584.75
259.394	11568.07
259.464	11569.86
259.535	11549.04
259.605	11524.21
259.675	11500.26
259.745	11482.14
259.815	11455.53
259.885	11431.87
259.955	11444.88
260.025	11419.29
260.095	11400.5
260.165	11392.64
260.235	11389.89
260.305	11363.68
260.375	11334.61
260.445	11342.61
260.515	11332.35
260.585	11317.55
260.655	11296.59
260.725	11295.53
260.795	11296.35
260.865	11302.85
260.934	11278.42
261.004	11268.39
261.074	11248.73
261.144	11246.95
261.214	11240.68
261.284	11228.49
261.354	11225.31
261.424	11197.02
261.494	11202.27
261.564	11179.04
261.634	11176.29
261.703	11140.63
261.773	11130.75
261.843	11120.68
