Data from 20250701_urea_2M_exp3_MAYP1162681_09-59-51-568.txt Node
Date: Wed Jul 02 09:59:51 BST 2025
User: adleo
Spectrometer: MAYP116268
Trigger mode: 0
Integration Time (sec): 4.000000E0
Scans to average: 1
Electric dark correction enabled: true
Nonlinearity correction enabled: true
Boxcar width: 10
XAxis mode: Wavelengths
Number of Pixels in Spectrum: 2068
>>>>>Begin Spectral Data<<<<<
179.565	3849.79
179.642	4055.69
179.718	4210.37
179.795	4343.24
179.871	4456.38
179.948	4518.5
180.024	4594.21
180.101	4677.86
180.177	4735.41
180.254	4816.03
180.33	4895.4
180.407	5174.18
180.483	5476.18
180.56	5781.26
180.636	6057.43
180.712	6014.36
180.789	6053.85
180.865	6092.74
180.942	6119.03
181.018	6157.04
181.095	6205.68
181.171	6222.57
181.248	6220.03
181.324	6274.2
181.4	6305.21
181.477	6341.6
181.553	6393.84
181.63	6468.99
181.706	6524.75
181.782	6552.62
181.859	6550.94
181.935	6564.77
182.011	6553.1
182.088	6610.69
182.164	6678.93
182.24	6724.91
182.317	6753.23
182.393	6752.27
182.469	6798.57
182.546	6848.23
182.622	6865.13
182.698	6846.73
182.775	6886.89
182.851	6936.51
182.927	6907.97
183.003	6890.64
183.08	6871.43
183.156	6899.48
183.232	6883.62
183.308	6838.14
183.385	6862.44
183.461	6924.79
183.537	6934.55
183.613	6981.2
183.69	6943.48
183.766	6905.22
183.842	6935.2
183.918	6959.46
183.995	6999.96
184.071	7010.05
184.147	6987.13
184.223	6948.96
184.299	6999.52
184.375	6961.14
184.452	6981.62
184.528	7115.91
184.604	7153.95
184.68	7199.87
184.756	7222.32
184.832	7243.61
184.908	7263.39
184.985	7256.33
185.061	7199.2
185.137	7228.95
185.213	7184.66
185.289	7193.64
185.365	7169.57
185.441	7165.87
185.517	7208.62
185.593	7196.51
185.669	7187.85
185.745	7228.99
185.822	7287.87
185.898	7255.81
185.974	7290.25
186.05	7268.32
186.126	7191.66
186.202	7167.88
186.278	7156.78
186.354	7127.32
186.43	7144.72
186.506	7145.35
186.582	7150.25
186.658	7175.12
186.734	7104.18
186.81	7109.03
186.886	7119.98
186.962	7161.44
187.038	7145.78
187.114	7118.75
187.19	7144.42
187.266	7118.28
187.341	7117.9
187.417	7088.97
187.493	7087.2
187.569	7100.51
187.645	7078.6
187.721	7035.34
187.797	7064.26
187.873	7081.33
187.949	7061.97
188.025	7037.3
188.101	7041.53
188.176	7057.91
188.252	7041.44
188.328	7072.74
188.404	7077.74
188.48	7063.52
188.556	7040.83
188.632	7035.89
188.707	7038.63
188.783	7029.78
188.859	7010
188.935	6966.46
189.011	6991.73
189.086	6971.03
189.162	6936.38
189.238	6923.99
189.314	6918.76
189.39	6898.87
189.465	6867.53
189.541	6925.2
189.617	6874.24
189.693	6856.09
189.768	6871.23
189.844	6958.19
189.92	6932.74
189.996	6960.56
190.071	6994.82
190.147	6992.76
190.223	7028.85
190.298	7000.11
190.374	6955.09
190.45	6999.71
190.526	7032.04
190.601	7019.21
190.677	7020.61
190.753	7113.74
190.828	7129.93
190.904	7180.2
190.98	7229.9
191.055	7273.06
191.131	7239.75
191.207	7311.39
191.282	7343.62
191.358	7305.7
191.433	7248.43
191.509	7288.62
191.585	7282.76
191.66	7286.61
191.736	7309.86
191.811	7278.24
191.887	7336.03
191.963	7415.91
192.038	7427.45
192.114	7429.75
192.189	7440.71
192.265	7431.92
192.34	7361.65
192.416	7355.36
192.491	7339.59
192.567	7341.99
192.642	7342.76
192.718	7347.57
192.793	7308.92
192.869	7301.43
192.944	7315.12
193.02	7350.41
193.095	7364.63
193.171	7383.96
193.246	7382.95
193.322	7372.71
193.397	7379.68
193.473	7327.36
193.548	7264.63
193.624	7286.74
193.699	7283.57
193.775	7336.03
193.85	7340.26
193.925	7367.32
194.001	7367.85
194.076	7342.62
194.152	7313.92
194.227	7287.24
194.302	7250.97
194.378	7264.76
194.453	7250.98
194.529	7292.94
194.604	7244.1
194.679	7223.2
194.755	7154.69
194.83	7198.66
194.905	7189.05
194.981	7213.46
195.056	7193.29
195.131	7213.18
195.207	7206.64
195.282	7172.72
195.357	7106.66
195.433	7164.23
195.508	7128.27
195.583	7156.05
195.659	7210.76
195.734	7232.54
195.809	7236.67
195.884	7270.58
195.96	7264.72
196.035	7319.12
196.11	7302.24
196.185	7340.69
196.261	7354.29
196.336	7463.34
196.411	7409.48
196.486	7434.14
196.561	7412.65
196.637	7438.35
196.712	7497.46
196.787	7508.28
196.862	7563.36
196.937	7601.37
197.013	7617.73
197.088	7647.43
197.163	7712.99
197.238	7763.33
197.313	7762.18
197.388	7802.57
197.464	7901.96
197.539	7942.92
197.614	7918.88
197.689	7964.62
197.764	8016.06
197.839	8082.67
197.914	8060.87
197.989	8137.07
198.065	8180.6
198.14	8348.29
198.215	8444.46
198.29	8485.33
198.365	8527.62
198.44	8562.36
198.515	8658.76
198.59	8712.66
198.665	8805.83
198.74	8843.39
198.815	8845.51
198.89	8922.41
198.965	9027.8
199.04	9019.91
199.115	9075.59
199.19	9223.59
199.265	9230.38
199.34	9267.16
199.415	9390.8
199.49	9467.33
199.565	9494.06
199.64	9580.87
199.715	9578.99
199.79	9603.46
199.865	9620.07
199.94	9617.95
200.015	9730.27
200.09	9749.97
200.165	9771.49
200.24	9796.2
200.315	9931.41
200.39	9988.59
200.464	10011.51
200.539	10007.46
200.614	10064.01
200.689	10146.62
200.764	10165.17
200.839	10227.04
200.914	10244.19
200.989	10200.24
201.063	10247.84
201.138	10194.64
201.213	10190.12
201.288	10124.7
201.363	10135.54
201.438	10137.71
201.512	10194.14
201.587	10129.01
201.662	10141.54
201.737	10181.33
201.812	10205.75
201.886	10093.13
201.961	10121.66
202.036	10076.39
202.111	10073.26
202.186	9968.21
202.26	9910.74
202.335	9835.01
202.41	9809.01
202.485	9746.46
202.559	9675.28
202.634	9580.55
202.709	9614.87
202.784	9546.25
202.858	9539.94
202.933	9476.82
203.008	9450.14
203.082	9383.45
203.157	9379.02
203.232	9228.18
203.306	9157.72
203.381	9045.28
203.456	8962.18
203.53	8881.01
203.605	8818.75
203.68	8738.92
203.754	8716.12
203.829	8658.35
203.904	8590.98
203.978	8548.81
204.053	8566.67
204.127	8525.29
204.202	8521.3
204.277	8453.17
204.351	8435.41
204.426	8412.11
204.5	8389.5
204.575	8270.8
204.65	8304.3
204.724	8282.2
204.799	8307.44
204.873	8289.15
204.948	8283.18
205.022	8243.61
205.097	8221.51
205.171	8266.24
205.246	8294.74
205.32	8289.55
205.395	8285.17
205.469	8253.73
205.544	8274.62
205.618	8208.03
205.693	8249.17
205.767	8206.4
205.842	8287.58
205.916	8266.65
205.991	8229.03
206.065	8246.4
206.14	8305.18
206.214	8286.89
206.289	8260.7
206.363	8305.54
206.438	8317.62
206.512	8345.53
206.586	8411.53
206.661	8438.21
206.735	8360.69
206.81	8365.84
206.884	8414.04
206.958	8374.45
207.033	8430.95
207.107	8460.9
207.181	8576.08
207.256	8554.81
207.33	8614.9
207.405	8653.72
207.479	8717.39
207.553	8742.69
207.628	8683.1
207.702	8721.64
207.776	8697.39
207.851	8706.92
207.925	8755.21
207.999	8737.06
208.073	8730.47
208.148	8738.56
208.222	8695.9
208.296	8812.8
208.371	8867.17
208.445	8912.86
208.519	9014.5
208.593	9055.5
208.668	9041.83
208.742	9048.57
208.816	9053.53
208.89	9106.12
208.965	9103.71
209.039	9125.95
209.113	9187.29
209.187	9257.8
209.261	9243.7
209.336	9311.68
209.41	9376.97
209.484	9385.55
209.558	9462.59
209.632	9507.94
209.707	9543.91
209.781	9617.63
209.855	9664.88
209.929	9720.06
210.003	9732.29
210.077	9726.32
210.151	9902.39
210.226	10020.96
210.3	10116.28
210.374	10199.01
210.448	10208.5
210.522	10240.49
210.596	10282.35
210.67	10322.38
210.744	10491.15
210.818	10604.42
210.892	10673.75
210.966	10653.28
211.041	10701.94
211.115	10692.74
211.189	10773.88
211.263	10831.11
211.337	10854.72
211.411	10910.91
211.485	10889.27
211.559	10936.67
211.633	10948.62
211.707	10831.35
211.781	10851.93
211.855	10723.18
211.929	10691.59
212.003	10624.22
212.077	10659.01
212.151	10697.61
212.225	10717.08
212.299	10671.77
212.373	10634.14
212.447	10616.21
212.52	10721.35
212.594	10728.82
212.668	10765.82
212.742	10712.58
212.816	10689.88
212.89	10665.26
212.964	10650.42
213.038	10649.07
213.112	10687.19
213.186	10726.64
213.26	10644.92
213.333	10482.37
213.407	10494.17
213.481	10498.36
213.555	10537.46
213.629	10483.25
213.703	10416.51
213.777	10409.86
213.85	10334.5
213.924	10430.98
213.998	10432.23
214.072	10394.45
214.146	10337.02
214.219	10311.91
214.293	10284.89
214.367	10281.42
214.441	10303.92
214.515	10251.79
214.588	10162.47
214.662	10026.93
214.736	9944.95
214.81	9960.45
214.883	9975.66
214.957	9922.22
215.031	9863.59
215.105	9770.13
215.178	9710.79
215.252	9667.16
215.326	9553.75
215.4	9468.64
215.473	9285.36
215.547	9180.56
215.621	9112.58
215.694	9103.33
215.768	9004.73
215.842	8940.57
215.915	8867.17
215.989	8753.73
216.063	8690.74
216.136	8671.34
216.21	8647.23
216.284	8655.32
216.357	8629.38
216.431	8584.62
216.504	8583.9
216.578	8636.51
216.652	8646.18
216.725	8613.16
216.799	8622.5
216.873	8613.26
216.946	8617.31
217.02	8577.49
217.093	8549.39
217.167	8447.51
217.24	8364.29
217.314	8334.09
217.387	8289.28
217.461	8242.12
217.535	8256.46
217.608	8194.02
217.682	8164.81
217.755	8177.42
217.829	8118.56
217.902	8104.32
217.976	8085.04
218.049	8033.81
218.123	7956.9
218.196	7950.41
218.27	7911.45
218.343	7837.2
218.417	7829.21
218.49	7804.49
218.563	7851.72
218.637	7861.58
218.71	7934.95
218.784	7961.84
218.857	7989.16
218.931	8002.71
219.004	8011.9
219.077	8035
219.151	8052.98
219.224	8042.35
219.298	8031.14
219.371	8080.03
219.444	8031.03
219.518	8041.76
219.591	8060.17
219.665	8174.27
219.738	8193.65
219.811	8186.01
219.885	8234.36
219.958	8264.48
220.031	8272.17
220.105	8291.32
220.178	8296.95
220.251	8269.04
220.325	8294.26
220.398	8315.67
220.471	8342.12
220.544	8377.1
220.618	8353.76
220.691	8381.47
220.764	8398.79
220.838	8431.27
220.911	8413.17
220.984	8498.26
221.057	8533.63
221.131	8562.35
221.204	8456.05
221.277	8522.52
221.35	8647.8
221.424	8639.95
221.497	8650.98
221.57	8672.43
221.643	8704.49
221.716	8749.07
221.79	8748.78
221.863	8761.59
221.936	8769.77
222.009	8782.57
222.082	8816.7
222.155	8824.64
222.229	8892.72
222.302	8925.06
222.375	8931.85
222.448	8969.2
222.521	8983.65
222.594	8985.96
222.667	8952.19
222.74	9011.58
222.814	9007.67
222.887	8990.91
222.96	9046.52
223.033	9091.74
223.106	9118.15
223.179	9149.22
223.252	9167.23
223.325	9197.51
223.398	9210.32
223.471	9237.42
223.544	9262.45
223.617	9270.87
223.69	9293.02
223.763	9248.71
223.837	9270.62
223.91	9297.63
223.983	9251.23
224.056	9213.25
224.129	9238.67
224.202	9298.34
224.275	9284.71
224.348	9252.6
224.42	9215.72
224.493	9151.88
224.566	9126.6
224.639	9149.37
224.712	9113.73
224.785	9094.46
224.858	9087.43
224.931	9068.12
225.004	9029.18
225.077	9029.66
225.15	8937.35
225.223	8936.97
225.296	9028.49
225.369	8976.93
225.442	8942.55
225.514	8959.49
225.587	8982.64
225.66	8990.97
225.733	8990.64
225.806	9004.79
225.879	9000.27
225.952	8968.17
226.025	9019.68
226.097	9065.1
226.17	9051.13
226.243	8992.32
226.316	8990.54
226.389	8997.52
226.461	9015.04
226.534	9034.3
226.607	9024.91
226.68	9112.69
226.753	9107.11
226.825	9021.37
226.898	9077.35
226.971	9082.07
227.044	9105.46
227.117	9111.34
227.189	9123.28
227.262	9164.07
227.335	9178.37
227.407	9165.04
227.48	9195.5
227.553	9210.19
227.626	9198.44
227.698	9205.32
227.771	9241.03
227.844	9218.93
227.916	9234.1
227.989	9200.78
228.062	9196.74
228.134	9286.22
228.207	9286.22
228.28	9277.46
228.352	9290.17
228.425	9294.94
228.498	9343.14
228.57	9316.71
228.643	9379.04
228.716	9379.71
228.788	9367.33
228.861	9360.25
228.934	9439.26
229.006	9448.07
229.079	9442.44
229.151	9425.91
229.224	9391.74
229.296	9421.02
229.369	9522.31
229.442	9574.91
229.514	9555.32
229.587	9600.97
229.659	9520.58
229.732	9532.34
229.804	9574.75
229.877	9651.21
229.949	9684.3
230.022	9738.31
230.094	9745.67
230.167	9731.51
230.239	9691.25
230.312	9679.94
230.384	9757.5
230.457	9748.01
230.529	9757.83
230.602	9764.67
230.674	9772.86
230.747	9821.53
230.819	9856.11
230.892	9738.5
230.964	9740.33
231.037	9772.34
231.109	9764.82
231.181	9808.79
231.254	9770.41
231.326	9753.51
231.399	9732.5
231.471	9699.11
231.544	9615.92
231.616	9663.49
231.688	9665.9
231.761	9652.23
231.833	9644.62
231.905	9556.8
231.978	9556.95
232.05	9539.33
232.122	9543.61
232.195	9524.25
232.267	9553.92
232.339	9521.45
232.412	9595.94
232.484	9566.27
232.556	9540.76
232.629	9612.15
232.701	9630.56
232.773	9644.81
232.846	9638.69
232.918	9642.21
232.99	9662.58
233.062	9703.48
233.135	9715.95
233.207	9678.58
233.279	9724.75
233.351	9753.16
233.424	9751.33
233.496	9727.1
233.568	9820.93
233.64	9784.91
233.713	9802.3
233.785	9800.66
233.857	9814.87
233.929	9757.03
234.001	9821.6
234.074	9894.59
234.146	9821.89
234.218	9818.95
234.29	9819.34
234.362	9807.93
234.434	9756.15
234.507	9724.07
234.579	9675.23
234.651	9659.24
234.723	9695.17
234.795	9715.83
234.867	9711.89
234.939	9768.91
235.012	9788.56
235.084	9784.47
235.156	9824
235.228	9804.35
235.3	9792.12
235.372	9806.67
235.444	9866.77
235.516	9786.5
235.588	9789.78
235.66	9803.41
235.732	9770.17
235.804	9972.67
235.876	10021.79
235.948	10091.4
236.02	10107
236.092	10118.8
236.164	10128.39
236.236	10127.62
236.308	10126.07
236.38	10150.4
236.452	10132.14
236.524	10145.97
236.596	10213.97
236.668	10248.08
236.74	10273.08
236.812	10301.59
236.884	10338.79
236.956	10353.44
237.028	10354.5
237.1	10339.85
237.172	10413.57
237.244	10498.27
237.316	10377.09
237.388	10356.72
237.46	10333.49
237.532	10394.77
237.604	10382.16
237.675	10453.23
237.747	10498.33
237.819	10484.12
237.891	10488.4
237.963	10483.73
238.035	10487.39
238.107	10376.8
238.178	10434.15
238.25	10439.21
238.322	10533.67
238.394	10485.1
238.466	10486.55
238.538	10530.04
238.609	10565.5
238.681	10510.09
238.753	10488.93
238.825	10513.08
238.897	10548.53
238.968	10634.41
239.04	10611.47
239.112	10735.29
239.184	10687.2
239.255	10677.22
239.327	10715.62
239.399	10738.07
239.471	10787.74
239.542	10818.77
239.614	10887.92
239.686	10803.73
239.758	10860.68
239.829	10822.07
239.901	10885.67
239.973	10899.65
240.044	10930.63
240.116	10945.47
240.188	10959.45
240.259	10979.06
240.331	10967.01
240.403	11000.11
240.474	10945.5
240.546	10934.28
240.618	10867.63
240.689	10876.35
240.761	10905.03
240.833	10974.86
240.904	10983.05
240.976	10983.14
241.048	10996.4
241.119	11031.29
241.191	11081.79
241.262	11155.05
241.334	11165.22
241.405	11172.55
241.477	11174.62
241.549	11184.31
241.62	11211.63
241.692	11257.51
241.763	11315.74
241.835	11336.61
241.906	11362.1
241.978	11336.17
242.049	11406
242.121	11478.19
242.192	11552.6
242.264	11510.2
242.335	11452.31
242.407	11495.4
242.478	11494.73
242.55	11521.72
242.621	11505.81
242.693	11503.3
242.764	11481.8
242.836	11479.97
242.907	11512.03
242.979	11547.16
243.05	11569.47
243.122	11592.56
243.193	11591.84
243.264	11512.02
243.336	11510.72
243.407	11544.65
243.479	11626.06
243.55	11648.28
243.622	11651.22
243.693	11643.36
243.764	11723.85
243.836	11706.79
243.907	11695.41
243.978	11707.27
244.05	11731.03
244.121	11681.87
244.192	11728.53
244.264	11685.25
244.335	11695.8
244.407	11648.13
244.478	11668.76
244.549	11660.38
244.62	11620.9
244.692	11619.51
244.763	11670.54
244.834	11663.31
244.906	11638.97
244.977	11660.42
245.048	11711.91
245.119	11696.19
245.191	11673.06
245.262	11604.47
245.333	11683.03
245.405	11701.49
245.476	11736.38
245.547	11753.4
245.618	11809.06
245.689	11822.75
245.761	11859.24
245.832	11866.23
245.903	11919.68
245.974	11942.1
246.045	11958.34
246.117	12039.75
246.188	12021.72
246.259	12001.24
246.33	12018.11
246.401	12027.94
246.473	11989.14
246.544	11978.97
246.615	12044.67
246.686	12054.6
246.757	12132.82
246.828	12110.55
246.899	12186.96
246.97	12146.18
247.042	12134.9
247.113	12177.85
247.184	12258.69
247.255	12256.43
247.326	12280.34
247.397	12283.91
247.468	12300.39
247.539	12316.73
247.61	12266.89
247.681	12324.34
247.752	12380.79
247.823	12350.76
247.894	12368.88
247.965	12343.77
248.037	12324.63
248.108	12261.97
248.179	12269.05
248.25	12252.04
248.321	12283.95
248.392	12228.99
248.463	12314.74
248.534	12318.26
248.605	12343.33
248.675	12321.2
248.746	12336.34
248.817	12356.82
248.888	12372.78
248.959	12309.3
249.03	12334.51
249.101	12349.06
249.172	12325.35
249.243	12252.86
249.314	12325.01
249.385	12331.43
249.456	12365.79
249.527	12361.31
249.598	12394.37
249.669	12395.77
249.739	12413.42
249.81	12423.63
249.881	12380.98
249.952	12375
250.023	12362.95
250.094	12305.34
250.165	12273.09
250.235	12274.88
250.306	12279.55
250.377	12244.8
250.448	12269.91
250.519	12203.29
250.59	12256.56
250.66	12258.73
250.731	12330.84
250.802	12329.34
250.873	12346.45
250.944	12373.16
251.014	12368.53
251.085	12456.94
251.156	12480.75
251.227	12542.26
251.297	12595.82
251.368	12646.53
251.439	12693.63
251.51	12756.39
251.58	12747.23
251.651	12740.68
251.722	12795.34
251.792	12739.81
251.863	12747.67
251.934	12811.83
252.005	12931.23
252.075	12941.74
252.146	12992.06
252.217	13042.82
252.287	13088.91
252.358	13093.15
252.429	13162.71
252.499	13153.26
252.57	13162.18
252.641	13217.38
252.711	13217.76
252.782	13177.51
252.852	13262.45
252.923	13257.05
252.994	13269.15
253.064	13321.07
253.135	13301.98
253.205	13276.19
253.276	13355.34
253.347	13425.96
253.417	13414.49
253.488	13390.29
253.558	13380.98
253.629	13380.84
253.699	13392.99
253.77	13413.19
253.841	13411.31
253.911	13420.18
253.982	13445.68
254.052	13471.9
254.123	13471.56
254.193	13475.47
254.264	13617.67
254.334	13578.67
254.405	13543.53
254.475	13509.93
254.546	13514.22
254.616	13583.49
254.687	13620.08
254.757	13646.93
254.827	13641.63
254.898	13658.74
254.968	13663.56
255.039	13641.1
255.109	13670.89
255.18	13639.7
255.25	13570.86
255.321	13609.04
255.391	13566.38
255.461	13647.27
255.532	13558.72
255.602	13559.53
255.673	13503.09
255.743	13457.44
255.813	13386.24
255.884	13446.3
255.954	13487.76
256.024	13552.79
256.095	13554.53
256.165	13510.8
256.235	13531
256.306	13513.26
256.376	13565.47
256.446	13611.36
256.517	13655.42
256.587	13710.42
256.657	13736.5
256.728	13765.67
256.798	13764.51
256.868	13759.69
256.938	13730.38
257.009	13785.19
257.079	13815.03
257.149	13921.86
257.219	13860.15
257.29	13902.86
257.36	13835.28
257.43	13875.43
257.5	13803.22
257.571	13794.54
257.641	13835.76
257.711	13800.42
257.781	13841.64
257.852	13856.49
257.922	13790.78
257.992	13794.54
258.062	13785.19
258.132	13825.15
258.202	13826.12
258.273	13849.11
258.343	13927.54
258.413	13913.66
258.483	13915.83
258.553	13881.51
258.623	13851.57
258.693	13890.28
258.764	13957.29
258.834	14032.68
258.904	14041.79
258.974	14033.74
259.044	14045.46
259.114	14069.85
259.184	14100.99
259.254	14107.26
259.324	14047.87
259.394	14100.41
259.464	14180.87
259.535	14186.51
259.605	14182.26
259.675	14173.59
259.745	14205.06
259.815	14176.48
259.885	14179.95
259.955	14302.76
260.025	14295.92
260.095	14304.98
260.165	14324.41
260.235	14381.82
260.305	14365.09
260.375	14338.29
260.445	14428.87
260.515	14493.9
260.585	14543.11
260.655	14550.78
260.725	14590.35
260.795	14631.62
260.865	14694.67
260.934	14654.9
261.004	14683.77
261.074	14683.92
261.144	14751.07
261.214	14784.09
261.284	14789.58
261.354	14826.85
261.424	14776
261.494	14852.36
261.564	14857.32
261.634	14895.5
261.703	14834.47
261.773	14864.27
261.843	14898.54
261.913	14895.74
261.983	14835.83
262.053	14860.75
262.123	14857.03
262.192	14814.95
262.262	14859.2
262.332	14821.22
262.402	14859.78
262.472	14871.01
262.541	14817.36
262.611	14864.84
262.681	14846.28
262.751	14886.77
262.821	14890.43
262.89	14854.86
