Data from 20250701_urea_2M_exp3_MAYP1162681_00-49-50-271.txt Node
Date: Wed Jul 02 00:49:50 BST 2025
User: adleo
Spectrometer: MAYP116268
Trigger mode: 0
Integration Time (sec): 4.000000E0
Scans to average: 1
Electric dark correction enabled: true
Nonlinearity correction enabled: true
Boxcar width: 10
XAxis mode: Wavelengths
Number of Pixels in Spectrum: 2068
>>>>>Begin Spectral Data<<<<<
179.565	3711.31
179.642	3904.5
179.718	4054.18
179.795	4189.45
179.871	4302.66
179.948	4368.74
180.024	4446.83
180.101	4526.31
180.177	4579.14
180.254	4663.25
180.33	4741.13
180.407	5008.04
180.483	5297.24
180.56	5589.75
180.636	5859.25
180.712	5823.92
180.789	5857.45
180.865	5899.83
180.942	5929.94
181.018	5968.8
181.095	6016.86
181.171	6038.11
181.248	6040.12
181.324	6096.01
181.4	6118.8
181.477	6155.81
181.553	6198.68
181.63	6265.17
181.706	6322.11
181.782	6349.11
181.859	6339.75
181.935	6355.12
182.011	6343.79
182.088	6399.1
182.164	6469.62
182.24	6520.39
182.317	6548.85
182.393	6537.29
182.469	6587.27
182.546	6633.89
182.622	6648
182.698	6629.37
182.775	6668.7
182.851	6717.05
182.927	6685.79
183.003	6672.4
183.08	6654.44
183.156	6685.03
183.232	6670.23
183.308	6625.09
183.385	6656.35
183.461	6716.23
183.537	6721.27
183.613	6767.48
183.69	6744.28
183.766	6703.38
183.842	6724.42
183.918	6736.09
183.995	6785.55
184.071	6795.02
184.147	6777.29
184.223	6737.07
184.299	6783.1
184.375	6742.38
184.452	6765.5
184.528	6895.28
184.604	6935.61
184.68	6974.51
184.756	7001.76
184.832	7022.66
184.908	7042.53
184.985	7034.51
185.061	6984.27
185.137	7013.1
185.213	6970.35
185.289	6969.49
185.365	6949.51
185.441	6945.86
185.517	6991.42
185.593	6981.09
185.669	6970.47
185.745	7009.44
185.822	7068.78
185.898	7034.75
185.974	7071.34
186.05	7046.11
186.126	6972.98
186.202	6945.22
186.278	6932.87
186.354	6900.87
186.43	6919.47
186.506	6917.93
186.582	6913.47
186.658	6934.93
186.734	6868.42
186.81	6881.58
186.886	6892.86
186.962	6930.95
187.038	6914.38
187.114	6886.35
187.19	6912.97
187.266	6881.23
187.341	6875.36
187.417	6851.73
187.493	6854.18
187.569	6861.97
187.645	6838.09
187.721	6797.97
187.797	6822.17
187.873	6830.82
187.949	6810.61
188.025	6790.9
188.101	6798.72
188.176	6820.34
188.252	6807.18
188.328	6837.94
188.404	6833.67
188.48	6813.36
188.556	6794.81
188.632	6793.76
188.707	6799.96
188.783	6786.4
188.859	6773.4
188.935	6737.89
189.011	6760.04
189.086	6735.31
189.162	6711
189.238	6703.85
189.314	6693.23
189.39	6671.05
189.465	6655.58
189.541	6709.29
189.617	6658.1
189.693	6637.26
189.768	6649.75
189.844	6733.81
189.92	6703.72
189.996	6729.51
190.071	6766.3
190.147	6759.77
190.223	6792.78
190.298	6765.49
190.374	6721.02
190.45	6757.36
190.526	6784.7
190.601	6769.18
190.677	6778.3
190.753	6871.33
190.828	6886.84
190.904	6938.58
190.98	6994.27
191.055	7030.07
191.131	7001.95
191.207	7073.09
191.282	7106.37
191.358	7072.46
191.433	7018.32
191.509	7064.26
191.585	7060.27
191.66	7062.44
191.736	7089.77
191.811	7058.78
191.887	7113.09
191.963	7196.27
192.038	7217.46
192.114	7221.3
192.189	7235.95
192.265	7227.89
192.34	7156.95
192.416	7152.97
192.491	7141.91
192.567	7154.8
192.642	7162.88
192.718	7164.22
192.793	7120.54
192.869	7109.73
192.944	7119.77
193.02	7151.69
193.095	7165.38
193.171	7185.32
193.246	7185.32
193.322	7176
193.397	7178.55
193.473	7137.01
193.548	7074.72
193.624	7094.24
193.699	7086.5
193.775	7135.35
193.85	7138.61
193.925	7163.12
194.001	7161.15
194.076	7135.11
194.152	7099.34
194.227	7067.05
194.302	7032.9
194.378	7046.5
194.453	7030.03
194.529	7074.48
194.604	7022.15
194.679	6996.16
194.755	6929.02
194.83	6969.89
194.905	6960.43
194.981	6990.75
195.056	6959.43
195.131	6979.51
195.207	6975.04
195.282	6945.46
195.357	6881.91
195.433	6932.74
195.508	6894.54
195.583	6919.32
195.659	6967.39
195.734	6980.94
195.809	6985.65
195.884	7015.13
195.96	7017.05
196.035	7072.2
196.11	7054.8
196.185	7092.61
196.261	7107.31
196.336	7215.66
196.411	7168.35
196.486	7182.14
196.561	7156.67
196.637	7190.82
196.712	7248.09
196.787	7247.99
196.862	7298.87
196.937	7337.55
197.013	7354.14
197.088	7382.49
197.163	7454.44
197.238	7513.96
197.313	7516.27
197.388	7561.26
197.464	7663.03
197.539	7699.71
197.614	7680.77
197.689	7722.65
197.764	7783.79
197.839	7846.15
197.914	7822.44
197.989	7898.18
198.065	7948.91
198.14	8117.48
198.215	8204.68
198.29	8237.46
198.365	8289.84
198.44	8328.18
198.515	8422.06
198.59	8481.44
198.665	8576.56
198.74	8602.79
198.815	8603.52
198.89	8684.59
198.965	8786.84
199.04	8771.82
199.115	8829.13
199.19	8973.54
199.265	8988.36
199.34	9009.83
199.415	9129.69
199.49	9206.4
199.565	9236.87
199.64	9318.66
199.715	9315.19
199.79	9339.03
199.865	9364.64
199.94	9353.48
200.015	9464.14
200.09	9477.33
200.165	9493.37
200.24	9514.12
200.315	9649.94
200.39	9699.31
200.464	9717.17
200.539	9719.2
200.614	9778.23
200.689	9851.39
200.764	9867.43
200.839	9923.18
200.914	9946.01
200.989	9913.1
201.063	9963.43
201.138	9909.53
201.213	9906.35
201.288	9838.1
201.363	9852.7
201.438	9847.93
201.512	9904.06
201.587	9840.48
201.662	9857.05
201.737	9896.3
201.812	9926.75
201.886	9813.46
201.961	9844.88
202.036	9805.88
202.111	9793.02
202.186	9692.52
202.26	9634.81
202.335	9559.97
202.41	9536.8
202.485	9475.43
202.559	9403.58
202.634	9306.32
202.709	9339.62
202.784	9272.74
202.858	9270.72
202.933	9211.36
203.008	9193.5
203.082	9123.51
203.157	9116.04
203.232	8966.25
203.306	8892.48
203.381	8776.01
203.456	8700.83
203.53	8622.84
203.605	8555.5
203.68	8477.51
203.754	8455.59
203.829	8402.64
203.904	8338.95
203.978	8304.68
204.053	8317.04
204.127	8269.47
204.202	8268.84
204.277	8205
204.351	8189.7
204.426	8166.94
204.5	8141.63
204.575	8022.33
204.65	8058.86
204.724	8034.83
204.799	8066.12
204.873	8053.42
204.948	8050.92
205.022	8007.74
205.097	7977.08
205.171	8021.85
205.246	8045.29
205.32	8036.68
205.395	8036.97
205.469	8011.59
205.544	8025.69
205.618	7971.44
205.693	8015.88
205.767	7970.43
205.842	8041.16
205.916	8017.16
205.991	7978.39
206.065	7996.72
206.14	8049.24
206.214	8036.53
206.289	8012.76
206.363	8049.65
206.438	8058.12
206.512	8084.68
206.586	8153.79
206.661	8188.35
206.735	8115.81
206.81	8118.7
206.884	8173.37
206.958	8123.51
207.033	8173.65
207.107	8199.41
207.181	8308.7
207.256	8293.35
207.33	8354.24
207.405	8396.04
207.479	8460.22
207.553	8490.38
207.628	8434.31
207.702	8470.24
207.776	8442.96
207.851	8452.39
207.925	8505.06
207.999	8493.75
208.073	8485.71
208.148	8491.63
208.222	8447.59
208.296	8559.65
208.371	8622.87
208.445	8662.1
208.519	8767.46
208.593	8811.45
208.668	8797.29
208.742	8800.81
208.816	8802.64
208.89	8854.88
208.965	8847.22
209.039	8869.41
209.113	8930.5
209.187	9001.53
209.261	8990.66
209.336	9058.67
209.41	9126.26
209.484	9131.03
209.558	9205.56
209.632	9251.96
209.707	9285.9
209.781	9358.02
209.855	9403.24
209.929	9454.46
210.003	9475.12
210.077	9470.06
210.151	9632.72
210.226	9746.12
210.3	9840.18
210.374	9922.36
210.448	9938.26
210.522	9974.29
210.596	10014.75
210.67	10042.25
210.744	10202.43
210.818	10319.92
210.892	10392.57
210.966	10372.87
211.041	10422.35
211.115	10413
211.189	10486.66
211.263	10540.03
211.337	10562.19
211.411	10619.04
211.485	10597.84
211.559	10639.51
211.633	10650.82
211.707	10543.31
211.781	10566.49
211.855	10444.74
211.929	10409.73
212.003	10334.08
212.077	10365.55
212.151	10398.6
212.225	10431.65
212.299	10388.18
212.373	10343.52
212.447	10324.3
212.52	10421.81
212.594	10431.35
212.668	10469.98
212.742	10418.43
212.816	10404.51
212.89	10381.2
212.964	10366.79
213.038	10369.77
213.112	10401.14
213.186	10444.64
213.26	10363.7
213.333	10204.11
213.407	10221.25
213.481	10226.46
213.555	10265.54
213.629	10215.63
213.703	10149.67
213.777	10130.74
213.85	10058.37
213.924	10160.48
213.998	10155.61
214.072	10120.48
214.146	10058.29
214.219	10033.19
214.293	10012.58
214.367	10005.78
214.441	10029.39
214.515	9978.56
214.588	9889.35
214.662	9759.18
214.736	9676.44
214.81	9691.79
214.883	9706.57
214.957	9647.36
215.031	9591.04
215.105	9496.79
215.178	9430.14
215.252	9396.15
215.326	9291.72
215.4	9204.61
215.473	9017.93
215.547	8928.45
215.621	8858.18
215.694	8852.64
215.768	8752.22
215.842	8682.63
215.915	8606.46
215.989	8484.53
216.063	8420.92
216.136	8396.47
216.21	8371.8
216.284	8377.86
216.357	8351.2
216.431	8309.72
216.504	8309.24
216.578	8362.43
216.652	8374.35
216.725	8353.56
216.799	8354.04
216.873	8340.28
216.946	8346.78
217.02	8309.42
217.093	8277.18
217.167	8181.88
217.24	8102.34
217.314	8066.42
217.387	8023.64
217.461	7975.44
217.535	8001.95
217.608	7940.96
217.682	7910.51
217.755	7920.13
217.829	7864.85
217.902	7843.55
217.976	7823.69
218.049	7772.85
218.123	7697.16
218.196	7692.74
218.27	7655.85
218.343	7589.85
218.417	7582.06
218.49	7562.34
218.563	7601.33
218.637	7606.38
218.71	7678
218.784	7702.1
218.857	7737.77
218.931	7757.14
219.004	7768.77
219.077	7790.86
219.151	7811.29
219.224	7805.86
219.298	7802.63
219.371	7847.23
219.444	7811.22
219.518	7821.9
219.591	7841.27
219.665	7941.62
219.738	7954.27
219.811	7936.72
219.885	7982.85
219.958	8018.59
220.031	8016.81
220.105	8043.32
220.178	8048.61
220.251	8018.69
220.325	8044.82
220.398	8062.61
220.471	8088.87
220.544	8121.96
220.618	8094.54
220.691	8118.25
220.764	8138.98
220.838	8173.52
220.911	8158.89
220.984	8245.61
221.057	8281.11
221.131	8300.54
221.204	8209.09
221.277	8281.42
221.35	8404.83
221.424	8396.17
221.497	8404.55
221.57	8424.84
221.643	8450.83
221.716	8504.54
221.79	8509.93
221.863	8517.92
221.936	8527.74
222.009	8537.17
222.082	8567.59
222.155	8576.15
222.229	8644.79
222.302	8670.63
222.375	8672.46
222.448	8711.3
222.521	8712.94
222.594	8716.69
222.667	8692.26
222.74	8743.12
222.814	8738.11
222.887	8725.64
222.96	8782.15
223.033	8828.08
223.106	8863.15
223.179	8895.51
223.252	8904.66
223.325	8942.83
223.398	8963.67
223.471	8985.72
223.544	9011.65
223.617	9023.93
223.69	9050.35
223.763	9009.81
223.837	9035.76
223.91	9060.99
223.983	9018.97
224.056	8986.78
224.129	9003.96
224.202	9063.13
224.275	9049.51
224.348	9023.61
224.42	8980.33
224.493	8922.24
224.566	8893.78
224.639	8911.68
224.712	8879.23
224.785	8859.58
224.858	8843.84
224.931	8817.89
225.004	8779.54
225.077	8779.63
225.15	8687.15
225.223	8687.59
225.296	8768.88
225.369	8707.81
225.442	8673.92
225.514	8686.43
225.587	8714.29
225.66	8725.13
225.733	8721.66
225.806	8739.23
225.879	8727.73
225.952	8702.33
226.025	8744.53
226.097	8801.32
226.17	8793.33
226.243	8733.75
226.316	8735.1
226.389	8745.26
226.461	8768.56
226.534	8793.77
226.607	8779.77
226.68	8870.66
226.753	8855.98
226.825	8771.85
226.898	8832.05
226.971	8838.11
227.044	8858.81
227.117	8863.96
227.189	8881.97
227.262	8919.76
227.335	8932.72
227.407	8924.2
227.48	8953.64
227.553	8965.87
227.626	8942.22
227.698	8944.87
227.771	8984.51
227.844	8959.82
227.916	8968.73
227.989	8929.06
228.062	8924.63
228.134	9013.42
228.207	9006.1
228.28	9008.41
228.352	9022.9
228.425	9024.44
228.498	9071.72
228.57	9049.53
228.643	9102.31
228.716	9103.52
228.788	9086.9
228.861	9080.11
228.934	9148.28
229.006	9157.47
229.079	9158.53
229.151	9148.47
229.224	9113.34
229.296	9134.85
229.369	9238.79
229.442	9287.72
229.514	9270.06
229.587	9312.47
229.659	9238.17
229.732	9255.26
229.804	9287.71
229.877	9371.47
229.949	9409.32
230.022	9458.7
230.094	9464.43
230.167	9452
230.239	9403.76
230.312	9399.58
230.384	9468.07
230.457	9465.08
230.529	9479.96
230.602	9485.64
230.674	9493.59
230.747	9539.55
230.819	9569.21
230.892	9452.38
230.964	9455.27
231.037	9486.45
231.109	9474.13
231.181	9516.06
231.254	9481.3
231.326	9471.91
231.399	9440.06
231.471	9405.82
231.544	9324.61
231.616	9361.92
231.688	9370.3
231.761	9361.64
231.833	9348.98
231.905	9270.33
231.978	9267.2
232.05	9246.45
232.122	9246.45
232.195	9221.79
232.267	9256.23
232.339	9234.99
232.412	9301.86
232.484	9274.93
232.556	9251.21
232.629	9323.6
232.701	9340.32
232.773	9350.14
232.846	9338.92
232.918	9349.18
232.99	9367.39
233.062	9412.89
233.135	9429.56
233.207	9385.4
233.279	9434.54
233.351	9470.13
233.424	9469.98
233.496	9447.01
233.568	9533.22
233.64	9497.69
233.713	9514.01
233.785	9511.99
233.857	9530.43
233.929	9477.23
234.001	9549.98
234.074	9617.52
234.146	9548.39
234.218	9541.07
234.29	9547.19
234.362	9533.23
234.434	9487.66
234.507	9462.09
234.579	9408.3
234.651	9389.72
234.723	9432.38
234.795	9443.8
234.867	9430.79
234.939	9493.3
235.012	9513.53
235.084	9516.03
235.156	9553.88
235.228	9534.57
235.3	9516.27
235.372	9528.02
235.444	9585.12
235.516	9497.2
235.588	9502.98
235.66	9517.19
235.732	9488.3
235.804	9679.74
235.876	9729.77
235.948	9793.69
236.02	9800.57
236.092	9811.31
236.164	9821.13
236.236	9815.69
236.308	9817.33
236.38	9847.96
236.452	9823.78
236.524	9844.53
236.596	9909.4
236.668	9944.61
236.74	9969.41
236.812	10006.69
236.884	10035.55
236.956	10049.42
237.028	10047.11
237.1	10029.87
237.172	10098.67
237.244	10177.13
237.316	10059.09
237.388	10038
237.46	10011.89
237.532	10078.27
237.604	10076.73
237.675	10153.38
237.747	10198.9
237.819	10187.06
237.891	10190.91
237.963	10179.25
238.035	10172.9
238.107	10062.36
238.178	10124.33
238.25	10129.82
238.322	10217.19
238.394	10177.26
238.466	10178.08
238.538	10219.25
238.609	10255.81
238.681	10208.06
238.753	10186.29
238.825	10205.32
238.897	10242.07
238.968	10327.89
239.04	10308.14
239.112	10423.9
239.184	10382.85
239.255	10386.51
239.327	10422.1
239.399	10443.64
239.471	10497.98
239.542	10534.83
239.614	10606.57
239.686	10528.31
239.758	10588.73
239.829	10549.98
239.901	10614.82
239.973	10631.35
240.044	10668.59
240.116	10681.84
240.188	10688.68
240.259	10706.32
240.331	10704.73
240.403	10741.01
240.474	10687.46
240.546	10680.28
240.618	10621.98
240.689	10619.52
240.761	10631.13
240.833	10700.38
240.904	10705.92
240.976	10708.28
241.048	10720.81
241.119	10751.8
241.191	10795.55
241.262	10862.93
241.334	10868.42
241.405	10869.05
241.477	10875.36
241.549	10881.09
241.62	10910.73
241.692	10962.05
241.763	11025.76
241.835	11034.82
241.906	11050.48
241.978	11024.51
242.049	11091.15
242.121	11149.56
242.192	11228.16
242.264	11196.59
242.335	11146.72
242.407	11188.98
242.478	11185.56
242.55	11209.61
242.621	11194.81
242.693	11198.04
242.764	11174.47
242.836	11173.98
242.907	11209.22
242.979	11236.83
243.05	11260.15
243.122	11278.37
243.193	11272.83
243.264	11195.86
243.336	11209.36
243.407	11247.05
243.479	11327.58
243.55	11345.51
243.622	11361.8
243.693	11351.96
243.764	11425.07
243.836	11398.82
243.907	11388.02
243.978	11399.34
244.05	11422.86
244.121	11375.16
244.192	11416.17
244.264	11371.88
244.335	11384.17
244.407	11335.44
244.478	11358.77
244.549	11351.16
244.62	11312.6
244.692	11315.93
244.763	11364.65
244.834	11348.55
244.906	11328.4
244.977	11347.97
245.048	11397.14
245.119	11369.38
245.191	11351.69
245.262	11279.84
245.333	11364.94
245.405	11387.83
245.476	11419.49
245.547	11433.95
245.618	11486.53
245.689	11497.47
245.761	11535.88
245.832	11543.4
245.903	11587.06
245.974	11611.69
246.045	11622.88
246.117	11708.09
246.188	11691.85
246.259	11672.33
246.33	11690.6
246.401	11699.95
246.473	11667.6
246.544	11651.12
246.615	11713.68
246.686	11711.99
246.757	11795.75
246.828	11770.74
246.899	11840.63
246.97	11810.37
247.042	11800.54
247.113	11843.48
247.184	11927.99
247.255	11923.22
247.326	11954.64
247.397	11964.67
247.468	11968.04
247.539	11984.77
247.61	11938.88
247.681	11986.55
247.752	12049.93
247.823	12027.71
247.894	12043.86
247.965	12014.5
248.037	11996.24
248.108	11943.7
248.179	11948.56
248.25	11929.77
248.321	11954.01
248.392	11898.04
248.463	11976.94
248.534	11973.04
248.605	11995.89
248.675	11973.18
248.746	11993.86
248.817	12006.78
248.888	12022.83
248.959	11971.93
249.03	11998.2
249.101	12009.72
249.172	11991.5
249.243	11910.73
249.314	11975.02
249.385	11985.58
249.456	12019.7
249.527	12016.28
249.598	12038.45
249.669	12046.65
249.739	12065.73
249.81	12080.34
249.881	12040.53
249.952	12033.92
250.023	12032.24
250.094	11978.25
250.165	11942.82
250.235	11939.63
250.306	11941.85
250.377	11910.71
250.448	11935.63
250.519	11864.15
250.59	11920.21
250.66	11926.09
250.731	12003.11
250.802	11997.28
250.873	12012.46
250.944	12034.88
251.014	12029.33
251.085	12125.36
251.156	12149.36
251.227	12203.45
251.297	12254.3
251.368	12314.36
251.439	12350.56
251.51	12406.48
251.58	12392.84
251.651	12383.78
251.722	12432.13
251.792	12383.35
251.863	12388.17
251.934	12449.82
252.005	12573.45
252.075	12581.31
252.146	12624.94
252.217	12672.47
252.287	12712.77
252.358	12715.9
252.429	12788.3
252.499	12787
252.57	12787
252.641	12832.75
252.711	12836.12
252.782	12789.22
252.852	12863.17
252.923	12873.72
252.994	12890.21
253.064	12953.89
253.135	12942.94
253.205	12921.01
253.276	13001.9
253.347	13067.94
253.417	13053.33
253.488	13032.12
253.558	13020.55
253.629	13018.57
253.699	13026.86
253.77	13061.38
253.841	13059.74
253.911	13071.26
253.982	13086.59
254.052	13120.58
254.123	13131.18
254.193	13136.63
254.264	13279.41
254.334	13241.76
254.405	13206.72
254.475	13177.89
254.546	13175.53
254.616	13238.82
254.687	13274.45
254.757	13293.29
254.827	13296.43
254.898	13310.55
254.968	13317.54
255.039	13297.78
255.109	13329.45
255.18	13299.47
255.25	13223.59
255.321	13255.12
255.391	13205.41
255.461	13292.33
255.532	13208.31
255.602	13205.03
255.673	13142.22
255.743	13105.63
255.813	13037.76
255.884	13078.11
255.954	13108.96
256.024	13170.42
256.095	13170.62
256.165	13136.15
256.235	13157.26
256.306	13139.33
256.376	13194.57
256.446	13236.85
256.517	13271.32
256.587	13315.96
256.657	13337.12
256.728	13365.75
256.798	13379.4
256.868	13381.42
256.938	13341.36
257.009	13387.45
257.079	13413.43
257.149	13521.36
257.219	13463.66
257.29	13498.27
257.36	13449.05
257.43	13488.68
257.5	13422.3
257.571	13412.9
257.641	13450.4
257.711	13418.68
257.781	13454.31
257.852	13468.38
257.922	13407.45
257.992	13416.51
258.062	13412.12
258.132	13458.6
258.202	13460.09
258.273	13468.96
258.343	13542.38
258.413	13538.52
258.483	13542.19
258.553	13509.84
258.623	13481.06
258.693	13507.53
258.764	13570.92
258.834	13634.36
258.904	13645.83
258.974	13640.43
259.044	13648
259.114	13678.56
259.184	13694.57
259.254	13702.28
259.324	13650.36
259.394	13692.59
259.464	13766.39
259.535	13775.55
259.605	13768.75
259.675	13763.6
259.745	13797.1
259.815	13769.77
259.885	13769.82
259.955	13881.02
260.025	13879.62
260.095	13894.03
260.165	13926.09
260.235	13992.18
260.305	13978.1
260.375	13941.66
260.445	14033.35
260.515	14101.8
260.585	14148.99
260.655	14158.97
260.725	14199.17
260.795	14229.01
260.865	14298.38
260.934	14269.07
261.004	14297.71
261.074	14303.93
261.144	14370.06
261.214	14410.07
261.284	14421.11
261.354	14460.69
261.424	14418.27
261.494	14491.45
261.564	14502.15
261.634	14530.06
261.703	14458.58
261.773	14486.92
261.843	14530.07
261.913	14523.94
261.983	14471.21
262.053	14494.87
262.123	14492.99
262.192	14453.03
262.262	14503.16
262.332	14447.39
262.402	14480.51
262.472	14487.21
262.541	14422.18
262.611	14458.96
262.681	14427.96
262.751	14462.48
262.821	14466.96
262.89	14431.24
262.96	14459.01
263.03	14527.12
263.1	14542.98
