Data from 20250701_urea_2M_exp3_MAYP1162681_17-09-52-458.txt Node
Date: Tue Jul 01 17:09:52 BST 2025
User: adleo
Spectrometer: MAYP116268
Trigger mode: 0
Integration Time (sec): 4.000000E0
Scans to average: 1
Electric dark correction enabled: true
Nonlinearity correction enabled: true
Boxcar width: 10
XAxis mode: Wavelengths
Number of Pixels in Spectrum: 2068
>>>>>Begin Spectral Data<<<<<
179.565	4108.15
179.642	4323.16
179.718	4498.49
179.795	4641.14
179.871	4774.52
179.948	4841.78
180.024	4922.46
180.101	5012.04
180.177	5070.44
180.254	5159.1
180.33	5247.76
180.407	5551.57
180.483	5872.97
180.56	6194.48
180.636	6492.57
180.712	6448.38
180.789	6486.17
180.865	6531.46
180.942	6566.22
181.018	6604.39
181.095	6650.18
181.171	6665.07
181.248	6668.34
181.324	6719.46
181.4	6752.85
181.477	6786.43
181.553	6840.1
181.63	6918.8
181.706	6974.21
181.782	7002.48
181.859	7002.63
181.935	7017.19
182.011	7004.55
182.088	7064.72
182.164	7141.93
182.24	7197.74
182.317	7229.64
182.393	7227.14
182.469	7280.05
182.546	7329.07
182.622	7345.69
182.698	7336.22
182.775	7382.79
182.851	7432.78
182.927	7406.82
183.003	7393.65
183.08	7375.01
183.156	7410.19
183.232	7396.97
183.308	7353.04
183.385	7386.73
183.461	7450.95
183.537	7455.52
183.613	7500.23
183.69	7470.32
183.766	7424.63
183.842	7445.16
183.918	7472.37
183.995	7522.7
184.071	7536.79
184.147	7517.32
184.223	7482.15
184.299	7522.35
184.375	7483.13
184.452	7507.38
184.528	7646.93
184.604	7681.97
184.68	7723.45
184.756	7746.05
184.832	7758.32
184.908	7783.2
184.985	7781.23
185.061	7718.74
185.137	7752.45
185.213	7703.8
185.289	7706.35
185.365	7686.35
185.441	7684.09
185.517	7732.06
185.593	7711.38
185.669	7699.79
185.745	7743.21
185.822	7797.37
185.898	7762.7
185.974	7797.69
186.05	7771.33
186.126	7690.68
186.202	7667.8
186.278	7654.77
186.354	7618.32
186.43	7649.59
186.506	7644.3
186.582	7639.35
186.658	7669.05
186.734	7600.5
186.81	7617.56
186.886	7628.47
186.962	7669.72
187.038	7657.99
187.114	7627.87
187.19	7656.96
187.266	7626.39
187.341	7620.33
187.417	7597.3
187.493	7603.69
187.569	7616.29
187.645	7594.9
187.721	7545.12
187.797	7571.76
187.873	7588.59
187.949	7565.95
188.025	7538.53
188.101	7546.84
188.176	7566.7
188.252	7550.5
188.328	7577.6
188.404	7575.29
188.48	7553.57
188.556	7532.55
188.632	7522.84
188.707	7524.48
188.783	7517.65
188.859	7497.13
188.935	7457.8
189.011	7482.27
189.086	7460.5
189.162	7431.17
189.238	7415.31
189.314	7409.59
189.39	7385.03
189.465	7357.48
189.541	7419.54
189.617	7363.31
189.693	7341.45
189.768	7355.34
189.844	7443.18
189.92	7411.71
189.996	7442.96
190.071	7487.62
190.147	7478.44
190.223	7513.64
190.298	7487.53
190.374	7432.92
190.45	7478.38
190.526	7505.59
190.601	7488.57
190.677	7489.44
190.753	7587.11
190.828	7609.41
190.904	7667.26
190.98	7726.03
191.055	7767.28
191.131	7735.97
191.207	7818.28
191.282	7851.3
191.358	7813.46
191.433	7756.78
191.509	7804.98
191.585	7792.57
191.66	7792.86
191.736	7821.27
191.811	7794.73
191.887	7852.5
191.963	7941.56
192.038	7959.59
192.114	7967
192.189	7981.9
192.265	7970.42
192.34	7891.84
192.416	7886.07
192.491	7874.04
192.567	7877.65
192.642	7886.6
192.718	7893.81
192.793	7844.94
192.869	7832.69
192.944	7841.05
193.02	7863.37
193.095	7877.99
193.171	7906.41
193.246	7907.18
193.322	7899.39
193.397	7894.87
193.473	7847.67
193.548	7783.51
193.624	7803.71
193.699	7796.88
193.775	7852.31
193.85	7858.03
193.925	7888
194.001	7884.29
194.076	7848.9
194.152	7815.9
194.227	7788.72
194.302	7748.87
194.378	7760.56
194.453	7753.78
194.529	7802.6
194.604	7752.78
194.679	7731.72
194.755	7661.48
194.83	7709.22
194.905	7695.28
194.981	7733.27
195.056	7702.46
195.131	7725.58
195.207	7718.99
195.282	7680.15
195.357	7610.88
195.433	7670.74
195.508	7627.84
195.583	7653.42
195.659	7710.61
195.734	7733.31
195.809	7728.41
195.884	7764.4
195.96	7769.17
196.035	7824.27
196.11	7806.23
196.185	7855.91
196.261	7865.52
196.336	7977.82
196.411	7925.13
196.486	7950.37
196.561	7922.96
196.637	7952.52
196.712	8013.2
196.787	8024.89
196.862	8090.87
196.937	8126.84
197.013	8148.59
197.088	8190.05
197.163	8276.53
197.238	8342.84
197.313	8336.58
197.388	8385.7
197.464	8495.64
197.539	8534.85
197.614	8509.5
197.689	8556.51
197.764	8613.7
197.839	8688.86
197.914	8660.99
197.989	8735.97
198.065	8787.32
198.14	8966.83
198.215	9069.21
198.29	9110.33
198.365	9151.4
198.44	9186.2
198.515	9289.28
198.59	9342.44
198.665	9430.41
198.74	9452.71
198.815	9450.59
198.89	9540.14
198.965	9648.03
199.04	9630.78
199.115	9693.33
199.19	9845.77
199.265	9855.45
199.34	9891.24
199.415	10015.54
199.49	10094.56
199.565	10132.95
199.64	10225.72
199.715	10214.11
199.79	10237.42
199.865	10263.01
199.94	10257.71
200.015	10376.95
200.09	10393.28
200.165	10416.21
200.24	10438.52
200.315	10584.98
200.39	10636.15
200.464	10660.68
200.539	10664.68
200.614	10725.04
200.689	10799.34
200.764	10825.85
200.839	10889.48
200.914	10904.03
200.989	10859.64
201.063	10909.89
201.138	10843.29
201.213	10835.87
201.288	10772.41
201.363	10790.97
201.438	10787.16
201.512	10846.36
201.587	10776.68
201.662	10787.18
201.737	10827.61
201.812	10862.4
201.886	10737.14
201.961	10772.46
202.036	10724.92
202.111	10719.14
202.186	10610.82
202.26	10552.9
202.335	10479.75
202.41	10461.06
202.485	10403.4
202.559	10332.78
202.634	10236.91
202.709	10270.57
202.784	10198.45
202.858	10192.19
202.933	10123.12
203.008	10095.51
203.082	10026.3
203.157	10027.55
203.232	9876.94
203.306	9797.69
203.381	9677.55
203.456	9599.53
203.53	9517.66
203.605	9445.32
203.68	9358.18
203.754	9332.87
203.829	9274.98
203.904	9192.89
203.978	9143.57
204.053	9155.95
204.127	9116.71
204.202	9108.96
204.277	9046.04
204.351	9025.44
204.426	9002.47
204.5	8973.58
204.575	8850.58
204.65	8892.62
204.724	8857.32
204.799	8888.59
204.873	8879.44
204.948	8873.56
205.022	8826.84
205.097	8794.09
205.171	8845.49
205.246	8874.19
205.32	8871.83
205.395	8868.94
205.469	8840.71
205.544	8865.22
205.618	8802.5
205.693	8839.28
205.767	8796.73
205.842	8880.02
205.916	8854.85
205.991	8816.54
206.065	8834.83
206.14	8888.45
206.214	8862.3
206.289	8835.48
206.363	8874.47
206.438	8881.74
206.512	8912.99
206.586	8986.53
206.661	9018.31
206.735	8938.88
206.81	8935.32
206.884	8992.1
206.958	8949.27
207.033	9009.37
207.107	9034.75
207.181	9146.52
207.256	9121.92
207.33	9190.8
207.405	9227.75
207.479	9300.93
207.553	9326.63
207.628	9273.46
207.702	9320.29
207.776	9296.85
207.851	9310.76
207.925	9363.89
207.999	9348.04
208.073	9333.17
208.148	9340.68
208.222	9291.51
208.296	9411.35
208.371	9476.53
208.445	9511.45
208.519	9615.15
208.593	9654.93
208.668	9644.67
208.742	9652.76
208.816	9660.95
208.89	9709.7
208.965	9702.52
209.039	9728.29
209.113	9800.34
209.187	9870.56
209.261	9851.3
209.336	9926.68
209.41	10002.93
209.484	10007.12
209.558	10088.77
209.632	10136.06
209.707	10179.9
209.781	10267.81
209.855	10320.85
209.929	10374.79
210.003	10401.53
210.077	10395.12
210.151	10571.46
210.226	10693.14
210.3	10800.2
210.374	10888.39
210.448	10902.27
210.522	10943.81
210.596	10983.37
210.67	11007.61
210.744	11178.68
210.818	11304.37
210.892	11378.78
210.966	11351.8
211.041	11413.77
211.115	11399.51
211.189	11489.48
211.263	11546.83
211.337	11566.2
211.411	11614.98
211.485	11603.17
211.559	11640.32
211.633	11653.33
211.707	11545.5
211.781	11566.95
211.855	11431.28
211.929	11394.66
212.003	11325.1
212.077	11355.51
212.151	11400.43
212.225	11434.8
212.299	11391.65
212.373	11342.93
212.447	11320.81
212.52	11436.81
212.594	11439.32
212.668	11481.2
212.742	11429.53
212.816	11405.38
212.89	11379.46
212.964	11370.88
213.038	11371.84
213.112	11416.28
213.186	11461.48
213.26	11369.32
213.333	11197.77
213.407	11205.87
213.481	11210.25
213.555	11251.05
213.629	11201.6
213.703	11124.87
213.777	11112.44
213.85	11032.44
213.924	11145.12
213.998	11140.35
214.072	11092.39
214.146	11030.46
214.219	11007.28
214.293	10976.2
214.367	10971.1
214.441	10992.69
214.515	10940.3
214.588	10836.79
214.662	10689.98
214.736	10596.95
214.81	10615.25
214.883	10634.47
214.957	10582.74
215.031	10523.74
215.105	10422.3
215.178	10349.16
215.252	10313.22
215.326	10199.63
215.4	10102.31
215.473	9897.64
215.547	9799.54
215.621	9724.85
215.694	9720.23
215.768	9611.62
215.842	9542.9
215.915	9461.87
215.989	9337.84
216.063	9277.43
216.136	9254.41
216.21	9233.52
216.284	9248.16
216.357	9213.83
216.431	9162.55
216.504	9153.93
216.578	9205.56
216.652	9213.49
216.725	9187.11
216.799	9187.35
216.873	9171.75
216.946	9187.54
217.02	9149.86
217.093	9110.1
217.167	9010.06
217.24	8919.53
217.314	8883.49
217.387	8830.09
217.461	8778.68
217.535	8810.65
217.608	8734.74
217.682	8706.2
217.755	8723.04
217.829	8663.06
217.902	8644.72
217.976	8624.84
218.049	8575.32
218.123	8498.24
218.196	8502.23
218.27	8464.74
218.343	8387.24
218.417	8380.21
218.49	8355.76
218.563	8400.99
218.637	8415.58
218.71	8485.32
218.784	8512.9
218.857	8545.13
218.931	8571.49
219.004	8586.22
219.077	8598.54
219.151	8620.05
219.224	8612.83
219.298	8597.57
219.371	8651.97
219.444	8610.98
219.518	8618.68
219.591	8637.25
219.665	8748.35
219.738	8760.29
219.811	8745.66
219.885	8799.76
219.958	8833.22
220.031	8840.34
220.105	8866.15
220.178	8869.13
220.251	8847.95
220.325	8874.82
220.398	8893.49
220.471	8919.38
220.544	8955.53
220.618	8932.23
220.691	8962.55
220.764	8981.47
220.838	9017.53
220.911	8989.7
220.984	9085.19
221.057	9127.16
221.131	9157.73
221.204	9058.37
221.277	9128.53
221.35	9263.34
221.424	9258.58
221.497	9269.46
221.57	9289.67
221.643	9322.38
221.716	9378.82
221.79	9380.12
221.863	9393.94
221.936	9408.19
222.009	9420.81
222.082	9455.48
222.155	9465.45
222.229	9542.76
222.302	9577.76
222.375	9579.69
222.448	9631.65
222.521	9635.22
222.594	9638.83
222.667	9612.35
222.74	9675.87
222.814	9671.19
222.887	9655.15
222.96	9708.76
223.033	9760.4
223.106	9789.96
223.179	9826.43
223.252	9840.5
223.325	9874.93
223.398	9890.01
223.471	9917.12
223.544	9938.79
223.617	9952.37
223.69	9976.89
223.763	9934.44
223.837	9952.99
223.91	9983.91
223.983	9928.48
224.056	9895.83
224.129	9926.7
224.202	9982.7
224.275	9965.6
224.348	9941.99
224.42	9896.96
224.493	9832.81
224.566	9806.6
224.639	9830.05
224.712	9796.95
224.785	9782.98
224.858	9773.54
224.931	9761.5
225.004	9723.6
225.077	9721.96
225.15	9618.68
225.223	9621.95
225.296	9711.43
225.369	9654.56
225.442	9625.66
225.514	9649.54
225.587	9672.22
225.66	9672.94
225.733	9674.49
225.806	9689.32
225.879	9679.64
225.952	9648.3
226.025	9700.45
226.097	9750.37
226.17	9739.44
226.243	9668.56
226.316	9659.93
226.389	9670.05
226.461	9684.84
226.534	9707.32
226.607	9705.64
226.68	9806.99
226.753	9802.18
226.825	9707.93
226.898	9772.99
226.971	9777.9
227.044	9794.32
227.117	9805.5
227.189	9827.18
227.262	9871.21
227.335	9894.19
227.407	9885.91
227.48	9924.14
227.553	9937.1
227.626	9918.69
227.698	9933.24
227.771	9979.12
227.844	9955.47
227.916	9974.5
227.989	9942.27
228.062	9944.05
228.134	10038.14
228.207	10035.59
228.28	10023.17
228.352	10037.71
228.425	10043.73
228.498	10092.34
228.57	10075.92
228.643	10137.93
228.716	10142.36
228.788	10123.96
228.861	10117.12
228.934	10191.05
229.006	10205.7
229.079	10217.74
229.151	10211
229.224	10169.77
229.296	10201.37
229.369	10323.95
229.442	10373.2
229.514	10350.9
229.587	10396.04
229.659	10315.63
229.732	10331.62
229.804	10378.49
229.877	10472.55
229.949	10511.78
230.022	10566.67
230.094	10573.17
230.167	10557.13
230.239	10507.89
230.312	10498.98
230.384	10574.93
230.457	10571.46
230.529	10578.64
230.602	10578.16
230.674	10582.69
230.747	10632.92
230.819	10665.68
230.892	10534.53
230.964	10536.46
231.037	10564.77
231.109	10557.98
231.181	10604.85
231.254	10567.28
231.326	10554.03
231.399	10521.01
231.471	10492.87
231.544	10409.17
231.616	10452.95
231.688	10461.58
231.761	10452.91
231.833	10432.05
231.905	10341.94
231.978	10339.34
232.05	10330.52
232.122	10333.46
232.195	10306.97
232.267	10341.99
232.339	10318.24
232.412	10393.34
232.484	10369.53
232.556	10346.95
232.629	10421.07
232.701	10442.41
232.773	10455.37
232.846	10449.16
232.918	10461.78
232.99	10477.25
233.062	10528.71
233.135	10545
233.207	10513.87
233.279	10559.44
233.351	10607.32
233.424	10603.9
233.496	10581.74
233.568	10666.84
233.64	10626.08
233.713	10644.58
233.785	10647.86
233.857	10667.52
233.929	10611.58
234.001	10678.86
234.074	10753.34
234.146	10676.52
234.218	10671.46
234.29	10674.06
234.362	10665.29
234.434	10613.68
234.507	10577.88
234.579	10526.13
234.651	10511.15
234.723	10542.13
234.795	10562.66
234.867	10559.33
234.939	10632.86
235.012	10655.22
235.084	10668.38
235.156	10715.06
235.228	10707.35
235.3	10692.51
235.372	10704.6
235.444	10770.75
235.516	10688.3
235.588	10698.37
235.66	10720.87
235.732	10694.7
235.804	10908.13
235.876	10958.86
235.948	11029.03
236.02	11048.06
236.092	11068.1
236.164	11083.71
236.236	11088.49
236.308	11094.51
236.38	11127.37
236.452	11104.77
236.524	11127.32
236.596	11197.85
236.668	11240.74
236.74	11263.53
236.812	11296.88
236.884	11337.12
236.956	11349.12
237.028	11350.81
237.1	11337.12
237.172	11414.87
237.244	11499.98
237.316	11379.65
237.388	11362.89
237.46	11338.16
237.532	11409.2
237.604	11395.18
237.675	11480.34
237.747	11529.8
237.819	11521.94
237.891	11529.31
237.963	11526.37
238.035	11526.28
238.107	11403.9
238.178	11470.03
238.25	11483.48
238.322	11577.28
238.394	11525.66
238.466	11532.41
238.538	11577.03
238.609	11629.71
238.681	11576.83
238.753	11556.59
238.825	11580.45
238.897	11617.8
238.968	11714.4
239.04	11695.89
239.112	11825.05
239.184	11780.7
239.255	11778.82
239.327	11813.04
239.399	11842.49
239.471	11893.29
239.542	11936.57
239.614	12011.95
239.686	11924.27
239.758	11986.88
239.829	11954.73
239.901	12033
239.973	12051.9
240.044	12094.89
240.116	12102.55
240.188	12117.74
240.259	12137.07
240.331	12126.99
240.403	12171.09
240.474	12119.47
240.546	12103.8
240.618	12043.45
240.689	12041.14
240.761	12066.16
240.833	12145.4
240.904	12144.58
240.976	12152.1
241.048	12166.32
241.119	12204.35
241.191	12256.51
241.262	12328.67
241.334	12337.93
241.405	12342.6
241.477	12351.47
241.549	12362.27
241.62	12397.46
241.692	12449.42
241.763	12516.14
241.835	12541.16
241.906	12564.97
241.978	12537.54
242.049	12623.39
242.121	12691.02
242.192	12775.33
242.264	12743.61
242.335	12699.17
242.407	12754.75
242.478	12761.4
242.55	12793.89
242.621	12784.1
242.693	12784.25
242.764	12773.45
242.836	12778.17
242.907	12816.54
242.979	12856.26
243.05	12882.01
243.122	12911.61
243.193	12911.8
243.264	12836.98
243.336	12842.09
243.407	12878.63
243.479	12971.28
243.55	12988.4
243.622	13001.27
243.693	12998.76
243.764	13073.33
243.836	13050.58
243.907	13036.27
243.978	13040.85
244.05	13068.61
244.121	13018.05
244.192	13066.4
244.264	13021.18
244.335	13033.47
244.407	12982.47
244.478	13001.37
244.549	13000.59
244.62	12954.27
244.692	12961.26
244.763	13016.16
244.834	13009.7
244.906	12986.28
244.977	13009.37
245.048	13068.23
245.119	13050.1
245.191	13028.12
245.262	12963.23
245.333	13045.57
245.405	13068.32
245.476	13109.3
245.547	13125.97
245.618	13193.32
245.689	13216.55
245.761	13252.71
245.832	13268.9
245.903	13324.24
245.974	13351.72
246.045	13365.03
246.117	13458.35
246.188	13446.45
246.259	13434.54
246.33	13452.52
246.401	13472.05
246.473	13436.52
246.544	13425.14
246.615	13496.29
246.686	13507.14
246.757	13593.38
246.828	13574.82
246.899	13659.61
246.97	13622.21
247.042	13616.66
247.113	13663.08
247.184	13754.82
247.255	13760.84
247.326	13794.25
247.397	13802.97
247.468	13825.1
247.539	13849.06
247.61	13799.21
247.681	13846.02
247.752	13914.28
247.823	13897.56
247.894	13921.27
247.965	13895.68
248.037	13886.37
248.108	13828.86
248.179	13836.19
248.25	13828.19
248.321	13859.71
248.392	13804.42
248.463	13898.76
248.534	13899.82
248.605	13923.78
248.675	13902.09
248.746	13923.4
248.817	13938
248.888	13960.9
248.959	13898.96
249.03	13921.76
249.101	13938.77
249.172	13924.7
249.243	13839.86
249.314	13914.38
249.385	13920.36
249.456	13955.89
249.527	13953.96
249.598	13986.02
249.669	13991.42
249.739	14010.89
249.81	14030.75
249.881	13989.15
249.952	13984.19
250.023	13988.96
250.094	13933.23
250.165	13896.07
250.235	13898.29
250.306	13901.42
250.377	13872.59
250.448	13904.6
250.519	13837.88
250.59	13897.51
250.66	13898.96
250.731	13974.74
250.802	13973.53
250.873	13999.9
250.944	14026.22
251.014	14017.74
251.085	14113.37
251.156	14147.89
251.227	14201.25
251.297	14256.98
251.368	14323.4
251.439	14371.22
251.51	14434.27
251.58	14425.36
251.651	14429.94
251.722	14482.77
251.792	14442.27
251.863	14448.73
251.934	14516.9
252.005	14647.77
252.075	14653.6
252.146	14711.45
252.217	14766.69
252.287	14815.23
252.358	14821.45
252.429	14907.4
252.499	14900.94
252.57	14912.36
252.641	14953.67
252.711	14963.26
252.782	14917.47
252.852	15000.23
252.923	15001.49
252.994	15014.36
253.064	15073.6
253.135	15047.96
253.205	15026.22
253.276	15104.79
253.347	15165.77
253.417	15148.13
253.488	15122.87
253.558	15112.02
253.629	15112.75
253.699	15126.05
253.77	15150.54
253.841	15139.98
253.911	15150.44
253.982	15176.13
254.052	15209.48
254.123	15224.47
254.193	15231.8
254.264	15380.06
254.334	15339.72
254.405	15307.52
254.475	15263.27
254.546	15267.94
254.616	15337.36
254.687	15376.21
254.757	15404.02
254.827	15416.55
254.898	15442.25
254.968	15452.71
255.039	15444.75
255.109	15485.77
255.18	15461.82
255.25	15394.14
255.321	15437.23
255.391	15387.73
255.461	15478.26
255.532	15391.35
255.602	15387.79
255.673	15325.89
255.743	15292.88
255.813	15219.22
255.884	15270.56
255.954	15309.07
256.024	15386.24
256.095	15388.27
256.165	15350.43
256.235	15370.96
256.306	15353.75
256.376	15405.04
256.446	15455.26
256.517	15498.06
256.587	15544.96
256.657	15569.78
256.728	15590.37
256.798	15601.12
256.868	15603.72
256.938	15578.99
257.009	15633.32
257.079	15672.07
257.149	15782.93
257.219	15717.14
257.29	15770.74
257.36	15712.37
257.43	15767.27
257.5	15697.81
257.571	15701.38
257.641	15748.47
257.711	15713.1
257.781	15741.25
257.852	15762.93
257.922	15702.73
257.992	15697.09
258.062	15693.33
258.132	15739.56
258.202	15754.93
258.273	15772.57
258.343	15852.97
258.413	15832.39
258.483	15831.52
258.553	15798.6
258.623	15778.45
258.693	15807.04
258.764	15868.92
258.834	15950.58
258.904	15964.27
258.974	15960.12
259.044	15971.93
259.114	15995.55
259.184	16023.26
259.254	16037.91
259.324	15978.68
259.394	16022.97
259.464	16111.99
259.535	16124.24
259.605	16116
259.675	16109.58
259.745	16149.54
259.815	16130.98
259.885	16138.79
259.955	16267.85
260.025	16265.35
260.095	16279.32
260.165	16320.39
260.235	16394.66
260.305	16373.79
260.375	16340.34
260.445	16433.17
260.515	16507.25
260.585	16563.92
260.655	16582.09
260.725	16638.68
260.795	16680.66
260.865	16755.84
260.934	16724.23
261.004	16764.27
261.074	16769.62
261.144	16829.34
261.214	16861.44
261.284	16860.09
261.354	16902.07
261.424	16856.48
261.494	16936.3
261.564	16934.9
261.634	16960.54
261.703	16883.19
261.773	16920.74
261.843	16960.26
261.913	16952.3
261.983	16893.41
262.053	16920.35
262.123	16917.36
262.192	16872.59
262.262	16924.2
262.332	16873.12
