Data from 20250701_urea_2M_exp3_MAYP1162681_04-49-49-102.txt Node
Date: Wed Jul 02 04:49:49 BST 2025
User: adleo
Spectrometer: MAYP116268
Trigger mode: 0
Integration Time (sec): 4.000000E0
Scans to average: 1
Electric dark correction enabled: true
Nonlinearity correction enabled: true
Boxcar width: 10
XAxis mode: Wavelengths
Number of Pixels in Spectrum: 2068
>>>>>Begin Spectral Data<<<<<
179.565	3600.54
179.642	3792.73
179.718	3937.85
179.795	4067.77
179.871	4179.7
179.948	4240.34
180.024	4310.41
180.101	4392.61
180.177	4442.27
180.254	4522.09
180.33	4597.92
180.407	4853.59
180.483	5136.46
180.56	5423.4
180.636	5682.98
180.712	5648.86
180.789	5682.38
180.865	5722.3
180.942	5753.13
181.018	5791.11
181.095	5833.73
181.171	5852.77
181.248	5854.45
181.324	5905.51
181.4	5931.56
181.477	5966.54
181.553	6007.06
181.63	6078.41
181.706	6128.48
181.782	6154.42
181.859	6148.32
181.935	6166.37
182.011	6159.99
182.088	6208.8
182.164	6269.12
182.24	6319.11
182.317	6347.03
182.393	6342.38
182.469	6388.12
182.546	6431.61
182.622	6448.98
182.698	6434.34
182.775	6474.81
182.851	6523.59
182.927	6499.39
183.003	6480.05
183.08	6457.88
183.156	6492.87
183.232	6484.75
183.308	6445
183.385	6476.34
183.461	6534.25
183.537	6540.11
183.613	6583.7
183.69	6560.46
183.766	6523.9
183.842	6546.19
183.918	6562.56
183.995	6603.8
184.071	6613.75
184.147	6600.54
184.223	6560.09
184.299	6596.98
184.375	6557.95
184.452	6575.44
184.528	6699.66
184.604	6740.46
184.68	6782.95
184.756	6803.8
184.832	6813.69
184.908	6831.11
184.985	6824.92
185.061	6776.37
185.137	6798.57
185.213	6759.05
185.289	6763.46
185.365	6743.16
185.441	6741.43
185.517	6791.22
185.593	6779.93
185.669	6774.36
185.745	6808.37
185.822	6868.41
185.898	6842.57
185.974	6878.67
186.05	6853.83
186.126	6783.79
186.202	6759.25
186.278	6747.58
186.354	6715.11
186.43	6739.23
186.506	6737.12
186.582	6734.67
186.658	6754.21
186.734	6687.63
186.81	6698.72
186.886	6706.25
186.962	6746.73
187.038	6728.63
187.114	6692.05
187.19	6721.45
187.266	6687.26
187.341	6688.95
187.417	6658.55
187.493	6663.45
187.569	6667.29
187.645	6649.86
187.721	6608.21
187.797	6635.43
187.873	6647.68
187.949	6632.03
188.025	6604.45
188.101	6609.25
188.176	6627.64
188.252	6612.18
188.328	6642.84
188.404	6637.46
188.48	6617.83
188.556	6597.03
188.632	6595.64
188.707	6603.57
188.783	6595.3
188.859	6581.68
188.935	6546.9
189.011	6575.47
189.086	6553.05
189.162	6526.44
189.238	6514.01
189.314	6506.91
189.39	6486.26
189.465	6465.13
189.541	6523.1
189.617	6480.37
189.693	6465.97
189.768	6480.91
189.844	6566.63
189.92	6539.52
189.996	6575.4
190.071	6617.37
190.147	6613.81
190.223	6648.35
190.298	6622.41
190.374	6575.54
190.45	6615.38
190.526	6633.34
190.601	6613.32
190.677	6616.73
190.753	6713.86
190.828	6728.64
190.904	6775.91
190.98	6829.04
191.055	6867.62
191.131	6835.38
191.207	6906.31
191.282	6937.09
191.358	6902.22
191.433	6851.46
191.509	6895.52
191.585	6882.98
191.66	6877.55
191.736	6903.48
191.811	6866.4
191.887	6923.88
191.963	6999.63
192.038	7018.46
192.114	7022.6
192.189	7040.6
192.265	7031.58
192.34	6953.6
192.416	6948.66
192.491	6937.85
192.567	6940.49
192.642	6944.14
192.718	6946.5
192.793	6896.72
192.869	6882.8
192.944	6891.68
193.02	6919.89
193.095	6931.99
193.171	6950.06
193.246	6952.46
193.322	6941.75
193.397	6949.05
193.473	6896.47
193.548	6839.14
193.624	6854.96
193.699	6851.35
193.775	6899.75
193.85	6901.05
193.925	6931.85
194.001	6930.02
194.076	6908.7
194.152	6877.36
194.227	6851.51
194.302	6819.68
194.378	6835.86
194.453	6825.74
194.529	6869.6
194.604	6818.82
194.679	6801.19
194.755	6736.52
194.83	6779.78
194.905	6779.45
194.981	6807.07
195.056	6778.55
195.131	6795.65
195.207	6791.56
195.282	6762.99
195.357	6698.17
195.433	6750.03
195.508	6710.83
195.583	6738.92
195.659	6779.72
195.734	6800.96
195.809	6802.69
195.884	6831.49
195.96	6831.11
196.035	6878.7
196.11	6865.53
196.185	6900.74
196.261	6913.71
196.336	7019.2
196.411	6973.2
196.486	6985.06
196.561	6963.25
196.637	7001.33
196.712	7050.74
196.787	7054.39
196.862	7105.12
196.937	7138.41
197.013	7159.08
197.088	7195.2
197.163	7264.92
197.238	7327.66
197.313	7326.84
197.388	7367.55
197.464	7466.79
197.539	7503.6
197.614	7485.39
197.689	7519.43
197.764	7572.71
197.839	7635.54
197.914	7612.41
197.989	7686.26
198.065	7731.26
198.14	7902.75
198.215	7986.86
198.29	8025.25
198.365	8068.15
198.44	8109.12
198.515	8201.24
198.59	8253.64
198.665	8338.83
198.74	8365.64
198.815	8368.43
198.89	8441.12
198.965	8540.6
199.04	8530.59
199.115	8581.58
199.19	8729.53
199.265	8742.9
199.34	8780.3
199.415	8891.77
199.49	8961.72
199.565	8992.09
199.64	9067.95
199.715	9054.36
199.79	9078.86
199.865	9108.37
199.94	9106.21
200.015	9205.44
200.09	9222.44
200.165	9238.66
200.24	9262.69
200.315	9392.48
200.39	9436.49
200.464	9458.1
200.539	9460.56
200.614	9510.97
200.689	9589.84
200.764	9606.75
200.839	9662.78
200.914	9677.99
200.989	9640.32
201.063	9685.59
201.138	9625.39
201.213	9627.94
201.288	9564.96
201.363	9583.83
201.438	9582.73
201.512	9631.92
201.587	9579.18
201.662	9591.7
201.737	9635.53
201.812	9663.08
201.886	9553.08
201.961	9583.72
202.036	9544.87
202.111	9536.93
202.186	9445.05
202.26	9389.28
202.335	9311.08
202.41	9291.1
202.485	9233.05
202.559	9165.89
202.634	9078.32
202.709	9112.43
202.784	9047.49
202.858	9045.71
202.933	8984.14
203.008	8954.15
203.082	8894.52
203.157	8882.34
203.232	8739.18
203.306	8663.29
203.381	8553.83
203.456	8474.86
203.53	8398.23
203.605	8332.93
203.68	8253.94
203.754	8229.33
203.829	8173.84
203.904	8106.94
203.978	8063.87
204.053	8076.48
204.127	8034.35
204.202	8034.39
204.277	7973.51
204.351	7950.51
204.426	7926.6
204.5	7891.34
204.575	7781.36
204.65	7813.5
204.724	7785.78
204.799	7813.35
204.873	7798.25
204.948	7793.58
205.022	7762.63
205.097	7735.48
205.171	7778.08
205.246	7800.16
205.32	7791.23
205.395	7795.55
205.469	7770.38
205.544	7788.32
205.618	7731.43
205.693	7773.85
205.767	7724.81
205.842	7794.93
205.916	7774.36
205.991	7742.14
206.065	7769.84
206.14	7818.83
206.214	7800.26
206.289	7774.62
206.363	7817.9
206.438	7833.63
206.512	7855.52
206.586	7916.2
206.661	7942.72
206.735	7875.43
206.81	7883.08
206.884	7937.79
206.958	7895.29
207.033	7951.43
207.107	7978.53
207.181	8084.09
207.256	8061.72
207.33	8129.77
207.405	8171.66
207.479	8235.29
207.553	8257.65
207.628	8200.59
207.702	8241.32
207.776	8220.59
207.851	8234.1
207.925	8282.14
207.999	8269.29
208.073	8257.84
208.148	8264.58
208.222	8229.16
208.296	8333.5
208.371	8384.49
208.445	8420.39
208.519	8514.23
208.593	8554.03
208.668	8541.32
208.742	8553.79
208.816	8563.6
208.89	8600.72
208.965	8593.54
209.039	8615.83
209.113	8671.08
209.187	8737.28
209.261	8724.2
209.336	8793.94
209.41	8861.9
209.484	8861.47
209.558	8933.58
209.632	8982.76
209.707	9016.41
209.781	9086.78
209.855	9134.54
209.929	9195.2
210.003	9211.81
210.077	9212.19
210.151	9371.03
210.226	9482.48
210.3	9564.64
210.374	9638.95
210.448	9659.04
210.522	9696.56
210.596	9740.86
210.67	9775.54
210.744	9933.62
210.818	10044.88
210.892	10109.14
210.966	10093.54
211.041	10146.33
211.115	10138.38
211.189	10219.54
211.263	10274.69
211.337	10293.71
211.411	10347.62
211.485	10324.69
211.559	10366.68
211.633	10370.83
211.707	10266.74
211.781	10296.86
211.855	10180.33
211.929	10151.97
212.003	10087.74
212.077	10115.88
212.151	10148.26
212.225	10171.67
212.299	10127.72
212.373	10082.35
212.447	10065.82
212.52	10157.83
212.594	10165.93
212.668	10192.47
212.742	10138.61
212.816	10118.61
212.89	10097.37
212.964	10080.89
213.038	10082.05
213.112	10118.76
213.186	10167.22
213.26	10080.37
213.333	9917.72
213.407	9925.62
213.481	9926.24
213.555	9957.77
213.629	9908.05
213.703	9844.12
213.777	9834.68
213.85	9768.73
213.924	9869.38
213.998	9861.53
214.072	9827.31
214.146	9773.27
214.219	9756.7
214.293	9726.75
214.367	9713.98
214.441	9735.32
214.515	9692.11
214.588	9601.72
214.662	9473.72
214.736	9389.74
214.81	9411.06
214.883	9428.67
214.957	9382.51
215.031	9328.38
215.105	9240.98
215.178	9186.13
215.252	9152.87
215.326	9050.23
215.4	8962.56
215.473	8780.16
215.547	8694.84
215.621	8629.19
215.694	8619.95
215.768	8524.31
215.842	8462.68
215.915	8397.26
215.989	8284
216.063	8217.33
216.136	8194.72
216.21	8164.56
216.284	8172.21
216.357	8150.47
216.431	8109.48
216.504	8105.63
216.578	8160.25
216.652	8171.49
216.725	8139.21
216.799	8145.22
216.873	8130.41
216.946	8136.76
217.02	8099.85
217.093	8069.93
217.167	7971.52
217.24	7889.39
217.314	7854.97
217.387	7812.35
217.461	7763.78
217.535	7784.79
217.608	7723.3
217.682	7699.2
217.755	7713.24
217.829	7656.97
217.902	7635.23
217.976	7611.67
218.049	7563.83
218.123	7490.99
218.196	7486.09
218.27	7450.89
218.343	7373.55
218.417	7369.65
218.49	7348.31
218.563	7396.14
218.637	7399.26
218.71	7469.27
218.784	7499.14
218.857	7528.22
218.931	7551.23
219.004	7562.48
219.077	7578.45
219.151	7601.28
219.224	7597.62
219.298	7594.07
219.371	7640.57
219.444	7603.42
219.518	7617.46
219.591	7636.69
219.665	7739.38
219.738	7755.68
219.811	7739.05
219.885	7783.29
219.958	7808.97
220.031	7814.79
220.105	7837.92
220.178	7844.08
220.251	7818.73
220.325	7834.75
220.398	7851.29
220.471	7870.62
220.544	7908.61
220.618	7886.29
220.691	7916.25
220.764	7928.66
220.838	7955.4
220.911	7935.15
220.984	8023.58
221.057	8058.16
221.131	8083.5
221.204	7985.33
221.277	8054.04
221.35	8177.77
221.424	8176.95
221.497	8193.69
221.57	8216.24
221.643	8243.67
221.716	8295.02
221.79	8298.48
221.863	8315.86
221.936	8327.64
222.009	8340.53
222.082	8364.88
222.155	8379.22
222.229	8440.05
222.302	8477.34
222.375	8482.97
222.448	8524.01
222.521	8525.02
222.594	8524.78
222.667	8496.75
222.74	8556.69
222.814	8547.5
222.887	8528.14
222.96	8580.98
223.033	8616.65
223.106	8642.73
223.179	8672.87
223.252	8680.28
223.325	8712.13
223.398	8728.26
223.471	8760.31
223.544	8785.09
223.617	8802.03
223.69	8821.71
223.763	8783.54
223.837	8805.25
223.91	8832.2
223.983	8783.89
224.056	8746.85
224.129	8765.28
224.202	8820.98
224.275	8801.58
224.348	8775.5
224.42	8745.27
224.493	8685.11
224.566	8666
224.639	8688.91
224.712	8656.55
224.785	8647.69
224.858	8636.38
224.931	8614.48
225.004	8572.91
225.077	8568.29
225.15	8476.79
225.223	8468.99
225.296	8550.56
225.369	8488.15
225.442	8459.13
225.514	8481.74
225.587	8506.47
225.66	8514.41
225.733	8511.04
225.806	8523.79
225.879	8512.39
225.952	8478.96
226.025	8525.92
226.097	8577.25
226.17	8565.41
226.243	8501.57
226.316	8491.85
226.389	8498.11
226.461	8519.43
226.534	8539.54
226.607	8535.45
226.68	8626.23
226.753	8626.71
226.825	8546.58
226.898	8600.04
226.971	8602.64
227.044	8621.6
227.117	8630.31
227.189	8651.1
227.262	8689.04
227.335	8711.47
227.407	8709.45
227.48	8739.61
227.553	8747.6
227.626	8722.51
227.698	8729.3
227.771	8777.69
227.844	8759.54
227.916	8780.14
227.989	8743.71
228.062	8739.04
228.134	8824.93
228.207	8821.8
228.28	8814.88
228.352	8826.52
228.425	8836.06
228.498	8880.68
228.57	8855.75
228.643	8909.05
228.716	8902.51
228.788	8884.4
228.861	8874.05
228.934	8933.4
229.006	8944.66
229.079	8947.55
229.151	8940.52
229.224	8902.84
229.296	8926.57
229.369	9025.19
229.442	9071.47
229.514	9057.66
229.587	9098.58
229.659	9018.99
229.732	9028.86
229.804	9067.7
229.877	9146.35
229.949	9178.32
230.022	9225
230.094	9229.71
230.167	9219.16
230.239	9177.63
230.312	9169.97
230.384	9237.21
230.457	9236.68
230.529	9245.77
230.602	9250.64
230.674	9258.15
230.747	9308.14
230.819	9332.41
230.892	9221.38
230.964	9216.18
231.037	9241.77
231.109	9236.24
231.181	9275.03
231.254	9247.16
231.326	9235.08
231.399	9208.96
231.471	9185.7
231.544	9111.73
231.616	9151.77
231.688	9155.58
231.761	9152.16
231.833	9138.11
231.905	9057.25
231.978	9050.47
232.05	9032.32
232.122	9031.7
232.195	9009.88
232.267	9032.95
232.339	9009.83
232.412	9065.23
232.484	9043.03
232.556	9017.15
232.629	9082.41
232.701	9104.9
232.773	9105.86
232.846	9095.08
232.918	9102.64
232.99	9116.08
233.062	9164.71
233.135	9179.59
233.207	9144.73
233.279	9190.02
233.351	9228.77
233.424	9234.64
233.496	9216.73
233.568	9304.61
233.64	9273.94
233.713	9289.64
233.785	9291.85
233.857	9305.14
233.929	9256.67
234.001	9324.45
234.074	9387.98
234.146	9320.89
234.218	9310.73
234.29	9316.41
234.362	9303.75
234.434	9256.75
234.507	9217.17
234.579	9156.17
234.651	9138.59
234.723	9170.03
234.795	9181.35
234.867	9171.09
234.939	9227.58
235.012	9247.99
235.084	9243.46
235.156	9278.7
235.228	9262.14
235.3	9248.46
235.372	9258.43
235.444	9321.98
235.516	9239.42
235.588	9245
235.66	9259.3
235.732	9233.25
235.804	9419.19
235.876	9470.36
235.948	9534.32
236.02	9552.76
236.092	9570.04
236.164	9581.06
236.236	9579.04
236.308	9575.14
236.38	9602.97
236.452	9580.24
236.524	9597.53
236.596	9665.09
236.668	9695.53
236.74	9723.55
236.812	9750.85
236.884	9783.66
236.956	9788.81
237.028	9783.66
237.1	9772.82
237.172	9844.12
237.244	9925.04
237.316	9809.22
237.388	9785.58
237.46	9757.88
237.532	9815.29
237.604	9803.83
237.675	9879.03
237.747	9928.55
237.819	9925.52
237.891	9928.7
237.963	9922.87
238.035	9917.38
238.107	9807
238.178	9867.09
238.25	9867.47
238.322	9957.19
238.394	9918.66
238.466	9926.61
238.538	9974.14
238.609	10009.53
238.681	9952.21
238.753	9934.43
238.825	9961.26
238.897	10000.12
238.968	10085.22
239.04	10071.49
239.112	10188.58
239.184	10140.69
239.255	10137.71
239.327	10168.24
239.399	10193.63
239.471	10237.84
239.542	10273.77
239.614	10341.12
239.686	10263.07
239.758	10317.6
239.829	10281.07
239.901	10343.83
239.973	10359.73
240.044	10391.43
240.116	10403.28
240.188	10423.75
240.259	10434.88
240.331	10424.91
240.403	10457.86
240.474	10412.66
240.546	10404.47
240.618	10340.15
240.689	10345.06
240.761	10355.61
240.833	10424.08
240.904	10419.21
240.976	10419.79
241.048	10436.27
241.119	10472.84
241.191	10524.63
241.262	10589.02
241.334	10598.03
241.405	10602.22
241.477	10604.97
241.549	10615.67
241.62	10642.07
241.692	10685.19
241.763	10743.55
241.835	10765.14
241.906	10776.95
241.978	10741.49
242.049	10806.44
242.121	10870.13
242.192	10934.75
242.264	10907.43
242.335	10855.44
242.407	10903.52
242.478	10905.45
242.55	10925.93
242.621	10906.12
242.693	10898.08
242.764	10884.29
242.836	10881.88
242.907	10907.71
242.979	10939.76
243.05	10964.24
243.122	10990.26
243.193	10989.1
243.264	10914.94
243.336	10914.03
243.407	10959.09
243.479	11040.04
243.55	11056.81
243.622	11072.14
243.693	11073.87
243.764	11142.06
243.836	11120.04
243.907	11103.13
243.978	11110.45
244.05	11134.36
244.121	11093.16
244.192	11134.51
244.264	11090.99
244.335	11103.57
244.407	11061.4
244.478	11070.07
244.549	11054.56
244.62	11009.98
244.692	11006.75
244.763	11052.82
244.834	11042.79
244.906	11012.96
244.977	11033.3
245.048	11079.82
245.119	11057.07
245.191	11032.68
245.262	10971.1
245.333	11057.06
245.405	11078.65
245.476	11111.42
245.547	11125.49
245.618	11183.75
245.689	11201
245.761	11231.89
245.832	11236.62
245.903	11282.06
245.974	11315.56
246.045	11324.33
246.117	11410.93
246.188	11395.46
246.259	11380.72
246.33	11402.11
246.401	11413.1
246.473	11376.33
246.544	11362.2
246.615	11422.74
246.686	11433.2
246.757	11503.89
246.828	11471.51
246.899	11549.74
246.97	11522.9
247.042	11516.77
247.113	11559.24
247.184	11637.76
247.255	11640.61
247.326	11669.33
247.397	11674.11
247.468	11680.03
247.539	11702.59
247.61	11651.69
247.681	11700.17
247.752	11758.39
247.823	11728.85
247.894	11750.06
247.965	11727.31
248.037	11722.73
248.108	11659.79
248.179	11669.47
248.25	11664.08
248.321	11693.14
248.392	11636.16
248.463	11716.74
248.534	11715.34
248.605	11732.89
248.675	11709.56
248.746	11721.13
248.817	11741.9
248.888	11758.14
248.959	11702.29
249.03	11724.27
249.101	11743.83
249.172	11730.1
249.243	11655.21
249.314	11727.16
249.385	11730.25
249.456	11762.34
249.527	11745.23
249.598	11778.1
249.669	11774.29
249.739	11792.32
249.81	11810.49
249.881	11771.65
249.952	11755.93
250.023	11759.74
250.094	11705.46
250.165	11670.32
250.235	11668.39
250.306	11662.56
250.377	11627.04
250.448	11652.68
250.519	11592.58
250.59	11640.25
250.66	11639.38
250.731	11711.62
250.802	11708.1
250.873	11732.83
250.944	11748.11
251.014	11745.41
251.085	11830.01
251.156	11862.16
251.227	11909.78
251.297	11966.13
251.368	12021.8
251.439	12061.81
251.51	12107.84
251.58	12096.52
251.651	12098.59
251.722	12151.08
251.792	12108.23
251.863	12110.4
251.934	12177.5
252.005	12287.88
252.075	12294.1
252.146	12342.97
252.217	12387.12
252.287	12428.68
252.358	12429.01
252.429	12506.38
252.499	12503.35
252.57	12512.31
252.641	12559.89
252.711	12561.48
252.782	12511.83
252.852	12587.46
252.923	12592.62
252.994	12606.46
253.064	12652.15
253.135	12627.04
253.205	12602.65
253.276	12668.06
253.347	12742.14
253.417	12717.36
253.488	12691.14
253.558	12680.1
253.629	12672.82
253.699	12687.48
253.77	12708.06
253.841	12704.35
253.911	12704.98
253.982	12722.95
254.052	12754.29
254.123	12753.57
254.193	12752.26
254.264	12887.05
254.334	12853.93
254.405	12824.62
254.475	12790.25
254.546	12800.13
254.616	12866.36
254.687	12904.88
254.757	12932.89
254.827	12930.77
254.898	12955.98
254.968	12969.28
255.039	12952.36
255.109	12991.36
255.18	12964.41
255.25	12896.78
255.321	12926.33
255.391	12892.78
255.461	12978.01
255.532	12893.74
255.602	12882.7
255.673	12830.59
255.743	12795.98
255.813	12721.7
255.884	12756.51
255.954	12794.83
256.024	12861.16
256.095	12860.49
256.165	12823.42
256.235	12842.7
256.306	12826.89
256.376	12868.44
256.446	12906.62
256.517	12947.55
256.587	12985.29
256.657	13000.14
256.728	13026.07
256.798	13038.99
256.868	13034.9
256.938	12996.04
257.009	13042.66
257.079	13085.37
257.149	13180.91
257.219	13114.96
257.29	13159.74
257.36	13112.79
257.43	13149.04
257.5	13081.7
257.571	13073.94
257.641	13110.09
257.711	13078.52
257.781	13112.5
257.852	13133.47
257.922	13073.5
257.992	13068.97
258.062	13071.57
258.132	13116.45
258.202	13123.68
258.273	13132.99
258.343	13202.84
258.413	13188.91
258.483	13192.81
258.553	13156.61
258.623	13132.27
258.693	13161.57
258.764	13223.57
258.834	13297.32
258.904	13312.8
258.974	13301.66
259.044	13313.47
259.114	13343.02
259.184	13364.52
259.254	13371.08
259.324	13321.71
259.394	13364.33
259.464	13445.99
259.535	13446.91
259.605	13439.96
259.675	13430.52
259.745	13467.97
259.815	13443.34
259.885	13451.87
259.955	13567.66
260.025	13558.84
260.095	13574.98
260.165	13608.63
260.235	13672.41
260.305	13650.62
260.375	13615.86
260.445	13706.87
260.515	13768.63
260.585	13808.98
260.655	13819.77
260.725	13866.73
260.795	13902.11
260.865	13970.8
260.934	13934.46
261.004	13965.02
261.074	13968.06
261.144	14024.12
261.214	14049.14
261.284	14054.92
261.354	14098.36
261.424	14042.97
261.494	14116.1
261.564	14121.02
261.634	14152.35
261.703	14081.59
261.773	14108.82
261.843	14147.44
261.913	14138.71
261.983	14088.63
262.053	14109.93
262.123	14108.53
262.192	14064.67
262.262	14103.66
262.332	14053.48
262.402	14088.19
262.472	14095.13
262.541	14042.59
262.611	14085.11
262.681	14067.65
262.751	14109.83
262.821	14113.59
262.89	14089.01
262.96	14109.26
263.03	14189.13
263.1	14199.11
263.169	14223.5
263.239	14255.17
