Data from 20250701_urea_2M_exp3_MAYP1162681_21-49-51-122.txt Node
Date: Tue Jul 01 21:49:51 BST 2025
User: adleo
Spectrometer: MAYP116268
Trigger mode: 0
Integration Time (sec): 4.000000E0
Scans to average: 1
Electric dark correction enabled: true
Nonlinearity correction enabled: true
Boxcar width: 10
XAxis mode: Wavelengths
Number of Pixels in Spectrum: 2068
>>>>>Begin Spectral Data<<<<<
179.565	3869.14
179.642	4067.92
179.718	4227.9
179.795	4369.78
179.871	4487.97
179.948	4555.19
180.024	4634.05
180.101	4716.85
180.177	4769.84
180.254	4851.93
180.33	4932.89
180.407	5216.99
180.483	5519.82
180.56	5826.63
180.636	6107.78
180.712	6073.11
180.789	6106.51
180.865	6146.03
180.942	6179.95
181.018	6219.93
181.095	6265.88
181.171	6281.29
181.248	6290.12
181.324	6345.35
181.4	6371.95
181.477	6412.09
181.553	6457.43
181.63	6527.69
181.706	6584.55
181.782	6610.7
181.859	6610.89
181.935	6628.28
182.011	6614.25
182.088	6669.97
182.164	6736.33
182.24	6786.35
182.317	6812.14
182.393	6806.23
182.469	6860.98
182.546	6909.98
182.622	6921.85
182.698	6910.65
182.775	6956.96
182.851	7006.54
182.927	6979.58
183.003	6959.56
183.08	6938.96
183.156	6970.04
183.232	6961
183.308	6921.7
183.385	6957.91
183.461	7016.82
183.537	7017.39
183.613	7063.28
183.69	7032.48
183.766	6995.13
183.842	7017.86
183.918	7040.05
183.995	7085.45
184.071	7089.2
184.147	7070.7
184.223	7033.68
184.299	7073.77
184.375	7032.4
184.452	7053.46
184.528	7179.29
184.604	7219.73
184.68	7260.66
184.756	7291.77
184.832	7306.72
184.908	7318.63
184.985	7308.87
185.061	7256.21
185.137	7293.84
185.213	7252.47
185.289	7262.75
185.365	7239.7
185.441	7237.48
185.517	7283.36
185.593	7271.15
185.669	7266.3
185.745	7300.13
185.822	7361.27
185.898	7333.68
185.974	7367.55
186.05	7335.05
186.126	7263.05
186.202	7237.64
186.278	7222.02
186.354	7186.2
186.43	7208.37
186.506	7206.11
186.582	7205.35
186.658	7230.51
186.734	7159.56
186.81	7167.14
186.886	7173.73
186.962	7216.63
187.038	7198.23
187.114	7171.73
187.19	7202.11
187.266	7172.37
187.341	7173.86
187.417	7142.29
187.493	7143.59
187.569	7151.66
187.645	7132.92
187.721	7091.3
187.797	7123.1
187.873	7139.97
187.949	7121.28
188.025	7099.89
188.101	7112.52
188.176	7138.47
188.252	7121.56
188.328	7148.64
188.404	7145.32
188.48	7122.75
188.556	7094.97
188.632	7096.31
188.707	7098.04
188.783	7084.87
188.859	7065.76
188.935	7026.16
189.011	7054.98
189.086	7030.82
189.162	7007.13
189.238	6993.73
189.314	6984.99
189.39	6962.88
189.465	6938.95
189.541	6997.3
189.617	6944.36
189.693	6927.16
189.768	6938.31
189.844	7024.38
189.92	6993.79
189.996	7031.71
190.071	7076.73
190.147	7075.14
190.223	7106.82
190.298	7083.36
190.374	7040.22
190.45	7083.35
190.526	7113.29
190.601	7095.84
190.677	7107.56
190.753	7199.56
190.828	7219.44
190.904	7275.01
190.98	7331.11
191.055	7366.63
191.131	7332.06
191.207	7408.71
191.282	7440.03
191.358	7399.81
191.433	7343.78
191.509	7392.67
191.585	7380.94
191.66	7378.39
191.736	7403.28
191.811	7370.74
191.887	7424.45
191.963	7505.88
192.038	7518.04
192.114	7521.6
192.189	7536.21
192.265	7522.04
192.34	7450.46
192.416	7443.74
192.491	7429.21
192.567	7432.53
192.642	7448.07
192.718	7446.53
192.793	7397.01
192.869	7382.6
192.944	7395.57
193.02	7424.51
193.095	7439.03
193.171	7452.73
193.246	7455.18
193.322	7452.15
193.397	7452.35
193.473	7396.52
193.548	7333.15
193.624	7355.65
193.699	7350.22
193.775	7403.46
193.85	7408.74
193.925	7435.81
194.001	7439.56
194.076	7412.59
194.152	7378.64
194.227	7347.19
194.302	7315.92
194.378	7329.33
194.453	7315.3
194.529	7355.4
194.604	7308.67
194.679	7286.37
194.755	7226.8
194.83	7272.16
194.905	7260.38
194.981	7297.06
195.056	7278.56
195.131	7302.69
195.207	7299.61
195.282	7267.27
195.357	7198.18
195.433	7250.99
195.508	7209.12
195.583	7232.82
195.659	7281.95
195.734	7302.92
195.809	7296.09
195.884	7323.61
195.96	7326.21
196.035	7386.82
196.11	7373.11
196.185	7411.52
196.261	7420.45
196.336	7527.31
196.411	7468.4
196.486	7490.51
196.561	7465.31
196.637	7494.43
196.712	7544.74
196.787	7551.76
196.862	7603.82
196.937	7644.15
197.013	7662.47
197.088	7696.26
197.163	7774.35
197.238	7831.86
197.313	7834.27
197.388	7885.09
197.464	7994.3
197.539	8036.56
197.614	8008.92
197.689	8049.47
197.764	8099.98
197.839	8169.05
197.914	8146.2
197.989	8225.52
198.065	8274.53
198.14	8447.49
198.215	8541.12
198.29	8585.5
198.365	8632.56
198.44	8672.4
198.515	8763.95
198.59	8816.41
198.665	8912.76
198.74	8930.82
198.815	8937.75
198.89	9015.82
198.965	9119.34
199.04	9105.81
199.115	9159
199.19	9308.79
199.265	9320.63
199.34	9360.16
199.415	9486.6
199.49	9563.52
199.565	9593.61
199.64	9677.26
199.715	9665.02
199.79	9684.81
199.865	9704.56
199.94	9695.12
200.015	9800.94
200.09	9823.87
200.165	9844.72
200.24	9869
200.315	10009.03
200.39	10058.21
200.464	10078.2
200.539	10076.22
200.614	10125.15
200.689	10206.37
200.764	10230.66
200.839	10298.8
200.914	10311.8
200.989	10272.05
201.063	10320.94
201.138	10265.82
201.213	10269.63
201.288	10202.44
201.363	10221.66
201.438	10224.35
201.512	10284.88
201.587	10222.83
201.662	10235.31
201.737	10276.21
201.812	10305.6
201.886	10191.87
201.961	10227.72
202.036	10188.33
202.111	10179.18
202.186	10083.23
202.26	10020.36
202.335	9941.01
202.41	9915.58
202.485	9858.67
202.559	9786.42
202.634	9696.12
202.709	9729.52
202.784	9650.39
202.858	9657.38
202.933	9591.93
203.008	9569.2
203.082	9500.92
203.157	9496.59
203.232	9348.2
203.306	9274.65
203.381	9158.2
203.456	9081.6
203.53	8998.92
203.605	8926.8
203.68	8850.96
203.754	8832.78
203.829	8781.07
203.904	8713.4
203.978	8664.92
204.053	8682.78
204.127	8638.65
204.202	8628.02
204.277	8560.9
204.351	8539.72
204.426	8509.54
204.5	8479.7
204.575	8355.93
204.65	8393.63
204.724	8372.15
204.799	8399.75
204.873	8384.83
204.948	8377.85
205.022	8334.57
205.097	8304.18
205.171	8349.88
205.246	8373.13
205.32	8363.18
205.395	8361.74
205.469	8327.7
205.544	8352.39
205.618	8288.92
205.693	8331.12
205.767	8288.69
205.842	8364.58
205.916	8343.7
205.991	8311.32
206.065	8331.38
206.14	8384.74
206.214	8359.07
206.289	8331.45
206.363	8374.46
206.438	8384.09
206.512	8408.87
206.586	8477.57
206.661	8500.2
206.735	8427.2
206.81	8436.78
206.884	8495.8
206.958	8452.41
207.033	8511.47
207.107	8535.64
207.181	8647.37
207.256	8624.75
207.33	8687.63
207.405	8734.35
207.479	8797.73
207.553	8819.04
207.628	8766.71
207.702	8809.15
207.776	8788.55
207.851	8794.04
207.925	8845.8
207.999	8835.02
208.073	8823.9
208.148	8830.02
208.222	8792.52
208.296	8902.58
208.371	8951.81
208.445	8991
208.519	9086.58
208.593	9125.81
208.668	9110.59
208.742	9121.77
208.816	9126.58
208.89	9178.64
208.965	9172.04
209.039	9203.01
209.113	9265.69
209.187	9338.24
209.261	9314.99
209.336	9382.11
209.41	9456.22
209.484	9455.02
209.558	9537.41
209.632	9589.89
209.707	9630.39
209.781	9708.74
209.855	9766.83
209.929	9826.97
210.003	9848.69
210.077	9848.16
210.151	10017.88
210.226	10134.13
210.3	10223.29
210.374	10310.02
210.448	10321.58
210.522	10361.38
210.596	10401.56
210.67	10435.23
210.744	10593.79
210.818	10713.37
210.892	10789.59
210.966	10768.4
211.041	10827.28
211.115	10808.82
211.189	10888.8
211.263	10940.89
211.337	10964.4
211.411	11006.61
211.485	10985.26
211.559	11017.64
211.633	11025.87
211.707	10919.21
211.781	10949.24
211.855	10821.31
211.929	10783.93
212.003	10718.09
212.077	10751.15
212.151	10782.38
212.225	10807.15
212.299	10768.59
212.373	10724.65
212.447	10700.94
212.52	10796.87
212.594	10798.85
212.668	10835.76
212.742	10788.48
212.816	10772.68
212.89	10744.06
212.964	10731.14
213.038	10737.36
213.112	10777.17
213.186	10820
213.26	10732.2
213.333	10563.14
213.407	10580.92
213.481	10588.04
213.555	10624.45
213.629	10569.99
213.703	10505.86
213.777	10500.17
213.85	10425.1
213.924	10534.93
213.998	10530.25
214.072	10493.96
214.146	10437.68
214.219	10419.13
214.293	10384.79
214.367	10372.26
214.441	10398.95
214.515	10353.13
214.588	10256.25
214.662	10121.47
214.736	10037.08
214.81	10060.57
214.883	10080.36
214.957	10024.65
215.031	9967.59
215.105	9869.89
215.178	9802.94
215.252	9763.07
215.326	9650.95
215.4	9563.28
215.473	9373.54
215.547	9284.24
215.621	9216.45
215.694	9207.06
215.768	9104.69
215.842	9038.5
215.915	8967.66
215.989	8846.07
216.063	8789.68
216.136	8765.61
216.21	8740.78
216.284	8751.27
216.357	8717.1
216.431	8672.33
216.504	8664.78
216.578	8723.32
216.652	8732.94
216.725	8711.04
216.799	8718.6
216.873	8700.84
216.946	8708.3
217.02	8667.66
217.093	8631.04
217.167	8530.37
217.24	8451.47
217.314	8410.4
217.387	8362.65
217.461	8313.81
217.535	8340.47
217.608	8270.22
217.682	8245.59
217.755	8256.6
217.829	8193.85
217.902	8172.97
217.976	8153.83
218.049	8110.87
218.123	8028.03
218.196	8028.27
218.27	7989.3
218.343	7914.27
218.417	7912.01
218.49	7884.69
218.563	7929.61
218.637	7941.59
218.71	8012.6
218.784	8031.8
218.857	8069.7
218.931	8094.02
219.004	8105.33
219.077	8119.48
219.151	8136.36
219.224	8121.54
219.298	8114.8
219.371	8169.61
219.444	8130.86
219.518	8138.84
219.591	8156.83
219.665	8257.11
219.738	8269.47
219.811	8251.87
219.885	8299.02
219.958	8329.09
220.031	8341.02
220.105	8368.6
220.178	8372.16
220.251	8347.13
220.325	8373.07
220.398	8390.11
220.471	8413.63
220.544	8443.46
220.618	8419.25
220.691	8452.69
220.764	8469.24
220.838	8498.74
220.911	8477.7
220.984	8571.71
221.057	8607.22
221.131	8627.14
221.204	8532.92
221.277	8605.9
221.35	8731.37
221.424	8728.68
221.497	8742.83
221.57	8760.63
221.643	8788.7
221.716	8835.93
221.79	8840.26
221.863	8857.4
221.936	8865.73
222.009	8871.84
222.082	8902.07
222.155	8910.68
222.229	8976.89
222.302	9016.89
222.375	9026.9
222.448	9071.48
222.521	9074.61
222.594	9072.49
222.667	9045.98
222.74	9104.75
222.814	9094.16
222.887	9078.5
222.96	9129.4
223.033	9176.93
223.106	9203.25
223.179	9234.46
223.252	9242.75
223.325	9275.24
223.398	9280.83
223.471	9310.34
223.544	9339.79
223.617	9355.2
223.69	9376.29
223.763	9334.73
223.837	9355.48
223.91	9381.1
223.983	9327.66
224.056	9287.76
224.129	9319.92
224.202	9380.65
224.275	9361.1
224.348	9329.86
224.42	9291.05
224.493	9231.92
224.566	9199.08
224.639	9219.73
224.712	9189.96
224.785	9176.19
224.858	9165.74
224.931	9154.57
225.004	9113.31
225.077	9103.2
225.15	9012.58
225.223	9016.04
225.296	9097.64
225.369	9035.16
225.442	9003
225.514	9025.71
225.587	9051.75
225.66	9052.86
225.733	9053.82
225.806	9071.39
225.879	9068.31
225.952	9036.26
226.025	9086.28
226.097	9142.5
226.17	9134.45
226.243	9062.69
226.316	9061.44
226.389	9063.46
226.461	9079.35
226.534	9096.48
226.607	9092.63
226.68	9183.21
226.753	9177.82
226.825	9094.2
226.898	9158.46
226.971	9159.23
227.044	9179.02
227.117	9186.92
227.189	9207.14
227.262	9237.58
227.335	9253.81
227.407	9248.03
227.48	9280.13
227.553	9293.52
227.626	9270.88
227.698	9275.45
227.771	9316.98
227.844	9289.01
227.916	9309.62
227.989	9275.05
228.062	9273.22
228.134	9362.99
228.207	9358.03
228.28	9348.25
228.352	9362.27
228.425	9368.86
228.498	9418.85
228.57	9395.6
228.643	9454.79
228.716	9454.7
228.788	9443.43
228.861	9439.33
228.934	9506.46
229.006	9514.45
229.079	9516.66
229.151	9509.73
229.224	9473.29
229.296	9505.6
229.369	9619.9
229.442	9677.47
229.514	9657.01
229.587	9703.53
229.659	9627.28
229.732	9640.38
229.804	9684.39
229.877	9764.17
229.949	9792.88
230.022	9846.41
230.094	9844.01
230.167	9835.19
230.239	9788.19
230.312	9777.07
230.384	9848.37
230.457	9843.46
230.529	9854.29
230.602	9850.92
230.674	9858.97
230.747	9908.55
230.819	9937.5
230.892	9812.6
230.964	9804.32
231.037	9835.22
231.109	9827.46
231.181	9869.94
231.254	9833.72
231.326	9819.13
231.399	9790.65
231.471	9764.59
231.544	9685.34
231.616	9738.11
231.688	9738.21
231.761	9728.39
231.833	9719.82
231.905	9633.49
231.978	9630.75
232.05	9619.58
232.122	9631.91
232.195	9603.59
232.267	9644.96
232.339	9622.9
232.412	9696.62
232.484	9675.04
232.556	9647.6
232.629	9718.33
232.701	9735.04
232.773	9749.73
232.846	9737.69
232.918	9751.71
232.99	9771.85
233.062	9815.92
233.135	9831.77
233.207	9793.53
233.279	9844.13
233.351	9876.44
233.424	9875.87
233.496	9849.14
233.568	9932.47
233.64	9891.87
233.713	9914.55
233.785	9906.08
233.857	9918.45
233.929	9862.11
234.001	9933.91
234.074	9999.1
234.146	9925.44
234.218	9924.23
234.29	9921.49
234.362	9910.41
234.434	9856.17
234.507	9818.31
234.579	9764.12
234.651	9735.8
234.723	9770.09
234.795	9789.31
234.867	9782.43
234.939	9850.1
235.012	9868.89
235.084	9875.63
235.156	9913.92
235.228	9893.35
235.3	9873.89
235.372	9887.33
235.444	9947.39
235.516	9858.59
235.588	9869.96
235.66	9889.32
235.732	9862.78
235.804	10068.65
235.876	10115.31
235.948	10185.75
236.02	10197.26
236.092	10209.35
236.164	10224.18
236.236	10222.16
236.308	10217.53
236.38	10249.09
236.452	10220.52
236.524	10249.08
236.596	10311.5
236.668	10345.71
236.74	10371.72
236.812	10405.1
236.884	10437.09
236.956	10449.91
237.028	10447.07
237.1	10425.58
237.172	10496.32
237.244	10572.73
237.316	10453.24
237.388	10441.68
237.46	10419.32
237.532	10485.76
237.604	10478.24
237.675	10561.07
237.747	10611.28
237.819	10602.32
237.891	10608.3
237.963	10600.69
238.035	10591.2
238.107	10473.76
238.178	10539.55
238.25	10544.65
238.322	10634.15
238.394	10585.78
238.466	10593.63
238.538	10644.94
238.609	10693.3
238.681	10639.43
238.753	10624.44
238.825	10645.74
238.897	10678.93
238.968	10760.34
239.04	10741.01
239.112	10862.38
239.184	10816.36
239.255	10806.05
239.327	10840.44
239.399	10861.84
239.471	10917.92
239.542	10957.34
239.614	11035.1
239.686	10942.14
239.758	10998.86
239.829	10959.77
239.901	11034.89
239.973	11048
240.044	11081.1
240.116	11092.14
240.188	11110.01
240.259	11126.3
240.331	11115.46
240.403	11155.26
240.474	11104.27
240.546	11101.28
240.618	11039.16
240.689	11038.96
240.761	11066.82
240.833	11136.17
240.904	11134.05
240.976	11127.35
241.048	11144.36
241.119	11175.79
241.191	11230.38
241.262	11295.84
241.334	11310.06
241.405	11312.08
241.477	11313.24
241.549	11321.87
241.62	11349.15
241.692	11398.98
241.763	11458.51
241.835	11483.04
241.906	11500.53
241.978	11473.21
242.049	11539.38
242.121	11601.45
242.192	11674.61
242.264	11640.73
242.335	11586.32
242.407	11640.45
242.478	11648.35
242.55	11672.01
242.621	11660.49
242.693	11655.63
242.764	11650.52
242.836	11651.72
242.907	11685.75
242.979	11719.63
243.05	11740.21
243.122	11768.7
243.193	11766.48
243.264	11689.27
243.336	11691.05
243.407	11726.77
243.479	11811.35
243.55	11828.61
243.622	11847.36
243.693	11844.52
243.764	11913.73
243.836	11898.93
243.907	11886.35
243.978	11892.81
244.05	11917.15
244.121	11871.46
244.192	11921.64
244.264	11871.03
244.335	11884.96
244.407	11835.84
244.478	11857.29
244.549	11852.18
244.62	11812.13
244.692	11809.62
244.763	11859.22
244.834	11850.35
244.906	11833.19
244.977	11857.72
245.048	11913.11
245.119	11889.69
245.191	11861.54
245.262	11802.98
245.333	11886.26
245.405	11901.63
245.476	11938.89
245.547	11962.37
245.618	12023.24
245.689	12034.04
245.761	12066.04
245.832	12075.78
245.903	12118.34
245.974	12145.04
246.045	12153.87
246.117	12247.52
246.188	12229.3
246.259	12213.69
246.33	12233.21
246.401	12239.72
246.473	12202.89
246.544	12187.22
246.615	12242.41
246.686	12253.84
246.757	12326.86
246.828	12297.94
246.899	12377
246.97	12338.24
247.042	12327.49
247.113	12369.77
247.184	12464.25
247.255	12459.43
247.326	12483.1
247.397	12488.84
247.468	12499.15
247.539	12513.04
247.61	12457.79
247.681	12504.02
247.752	12559.74
247.823	12529.37
247.894	12538.72
247.965	12509.66
248.037	12497.46
248.108	12443.72
248.179	12454.32
248.25	12444.44
248.321	12479.92
248.392	12431.37
248.463	12524.98
248.534	12516.16
248.605	12536.94
248.675	12503.53
248.746	12527.68
248.817	12547.68
248.888	12572.9
248.959	12514.38
249.03	12545.71
249.101	12553.81
249.172	12547.3
249.243	12470.85
249.314	12546.44
249.385	12564.9
249.456	12595.07
249.527	12589.67
249.598	12615.08
249.669	12612.38
249.739	12634.07
249.81	12650.89
249.881	12600.18
249.952	12586.54
250.023	12591.46
250.094	12533.08
250.165	12504.45
250.235	12502.23
250.306	12500.35
250.377	12464.48
250.448	12493.41
250.519	12423.61
250.59	12482.56
250.66	12476.3
250.731	12545.56
250.802	12535.87
250.873	12551.92
250.944	12576.41
251.014	12563.49
251.085	12660.68
251.156	12686.56
251.227	12733.42
251.297	12777.62
251.368	12836.09
251.439	12879.77
251.51	12935.59
251.58	12919.54
251.651	12915.06
251.722	12965.77
251.792	12915.97
251.863	12925.66
251.934	12991.9
252.005	13108.89
252.075	13114.82
252.146	13172.57
252.217	13228.44
252.287	13281.42
252.358	13288.22
252.429	13361.92
252.499	13361.59
252.57	13370.26
252.641	13420.44
252.711	13425.17
252.782	13382.36
252.852	13463.3
252.923	13462.87
252.994	13469.57
253.064	13528.18
253.135	13502.68
253.205	13486.1
253.276	13564.43
253.347	13631.63
253.417	13608.59
253.488	13597.98
253.558	13584.58
253.629	13574.27
253.699	13593.5
253.77	13613.17
253.841	13608.44
253.911	13615.87
253.982	13631.49
254.052	13664.99
254.123	13674.87
254.193	13683.16
254.264	13825.99
254.334	13780.58
254.405	13747.66
254.475	13716.95
254.546	13723.12
254.616	13792.59
254.687	13824.98
254.757	13850.53
254.827	13848.55
254.898	13873.33
254.968	13873.09
255.039	13859.78
255.109	13902.21
255.18	13864.75
255.25	13792.68
255.321	13825.99
255.391	13786.75
255.461	13878.44
255.532	13790.03
255.602	13780.97
255.673	13722.69
255.743	13686.15
255.813	13611.53
255.884	13662.1
255.954	13701.96
256.024	13778.8
256.095	13783.14
256.165	13746.6
256.235	13764.15
256.306	13748.58
256.376	13793.75
256.446	13832.02
256.517	13865.67
256.587	13906.16
256.657	13935.96
256.728	13960.4
256.798	13970.47
256.868	13969.31
256.938	13932.39
257.009	13977.85
257.079	14013.66
257.149	14113.79
257.219	14047.84
257.29	14099.52
257.36	14039.6
257.43	14077.63
257.5	13995.06
257.571	13984.55
257.641	14024.99
257.711	13988.93
257.781	14022.82
257.852	14044.08
257.922	13986.33
257.992	14000.99
258.062	14006.05
258.132	14047.02
258.202	14054.06
258.273	14063.75
258.343	14138.03
258.413	14131.19
258.483	14131.77
258.553	14098.74
258.623	14074.35
258.693	14104.24
258.764	14168.31
258.834	14238.78
258.904	14258.69
258.974	14253.2
259.044	14264.04
259.114	14290.7
259.184	14328.93
259.254	14337.27
259.324	14279.47
259.394	14321.89
259.464	14394.68
259.535	14391.88
259.605	14385.52
259.675	14382.82
259.745	14422.2
259.815	14399.11
259.885	14395.64
259.955	14513.83
260.025	14506.02
260.095	14514.12
260.165	14551.33
260.235	14614.77
260.305	14601.08
260.375	14566.08
260.445	14663.36
260.515	14732.29
260.585	14782.08
260.655	14788.74
260.725	14831.3
260.795	14876.42
260.865	14950.89
260.934	14913.73
261.004	14943.23
261.074	14944.73
261.144	15002.57
261.214	15031.25
261.284	15025.61
261.354	15068.52
261.424	15023.84
261.494	15101.88
261.564	15120.01
261.634	15145.7
261.703	15075.08
261.773	15105.21
261.843	15138.04
261.913	15122.42
261.983	15055.46
262.053	15073.39
262.123	15065.15
262.192	15029.05
262.262	15075.03
262.332	15029.72
262.402	15069.2
262.472	15080
262.541	15018.92
262.611	15060.95
262.681	15046.64
262.751	15097.01
262.821	15096.96
262.89	15065.77
262.96	15088.52
