Data from 20250701_urea_2M_exp3_MAYP1162681_06-29-48-582.txt Node
Date: Wed Jul 02 06:29:48 BST 2025
User: adleo
Spectrometer: MAYP116268
Trigger mode: 0
Integration Time (sec): 4.000000E0
Scans to average: 1
Electric dark correction enabled: true
Nonlinearity correction enabled: true
Boxcar width: 10
XAxis mode: Wavelengths
Number of Pixels in Spectrum: 2068
>>>>>Begin Spectral Data<<<<<
179.565	3686.93
179.642	3879.58
179.718	4030.42
179.795	4162.6
179.871	4276.74
179.948	4342.39
180.024	4411.56
180.101	4492.41
180.177	4545.82
180.254	4629.45
180.33	4710.44
180.407	4975.95
180.483	5261.08
180.56	5556.32
180.636	5821.46
180.712	5780.47
180.789	5812.42
180.865	5854.36
180.942	5886.15
181.018	5921.36
181.095	5972.68
181.171	5988.32
181.248	5992.3
181.324	6044.53
181.4	6068.71
181.477	6102.74
181.553	6143.12
181.63	6215.11
181.706	6267.58
181.782	6292.76
181.859	6288.49
181.935	6305.49
182.011	6298.62
182.088	6355.85
182.164	6414.54
182.24	6465.69
182.317	6501.74
182.393	6500.15
182.469	6552
182.546	6597.42
182.622	6607.21
182.698	6584.45
182.775	6624.07
182.851	6672.08
182.927	6644.33
183.003	6629.98
183.08	6613.27
183.156	6645.05
183.232	6636.65
183.308	6595.31
183.385	6624.97
183.461	6679.62
183.537	6676.5
183.613	6716.7
183.69	6690.57
183.766	6658.47
183.842	6683.6
183.918	6695.99
183.995	6736.09
184.071	6743.92
184.147	6729.17
184.223	6693.13
184.299	6743.05
184.375	6705.16
184.452	6728.23
184.528	6856.99
184.604	6895.21
184.68	6935.12
184.756	6963.47
184.832	6978.03
184.908	6998.14
184.985	6989.64
185.061	6937.82
185.137	6972.8
185.213	6932.79
185.289	6938.21
185.365	6918.67
185.441	6913.63
185.517	6959.96
185.593	6949.05
185.669	6937.19
185.745	6969.09
185.822	7028.71
185.898	6995.98
185.974	7031.32
186.05	7001.48
186.126	6930.56
186.202	6904.2
186.278	6891.8
186.354	6852.6
186.43	6873.07
186.506	6867.93
186.582	6870.91
186.658	6891.94
186.734	6822.84
186.81	6832.77
186.886	6837
186.962	6873.36
187.038	6856.79
187.114	6830.3
187.19	6857.25
187.266	6827.29
187.341	6828.92
187.417	6804.48
187.493	6808.94
187.569	6817.74
187.645	6800.2
187.721	6755.23
187.797	6783.9
187.873	6797.21
187.949	6779.3
188.025	6756.47
188.101	6763.86
188.176	6780.19
188.252	6766.03
188.328	6792.9
188.404	6795.93
188.48	6779.7
188.556	6755.92
188.632	6752.94
188.707	6758.85
188.783	6746.74
188.859	6727.45
188.935	6689.93
189.011	6717.26
189.086	6693.16
189.162	6666.54
189.238	6652.72
189.314	6643.83
189.39	6625.92
189.465	6605.65
189.541	6666.32
189.617	6616.91
189.693	6599.63
189.768	6612.6
189.844	6695.3
189.92	6669.34
189.996	6695.23
190.071	6735.86
190.147	6728.9
190.223	6761.81
190.298	6733.56
190.374	6690.48
190.45	6735.17
190.526	6761.64
190.601	6740.89
190.677	6745.98
190.753	6837.56
190.828	6853.4
190.904	6909.08
190.98	6962.04
191.055	7001.39
191.131	6972.17
191.207	7043.21
191.282	7078.41
191.358	7043.87
191.433	6990.27
191.509	7029.58
191.585	7021.7
191.66	7022.76
191.736	7051.05
191.811	7017.56
191.887	7069.23
191.963	7153.32
192.038	7167.44
192.114	7171.86
192.189	7187.19
192.265	7178.11
192.34	7108.05
192.416	7102.48
192.491	7087.44
192.567	7093.93
192.642	7095.71
192.718	7094.03
192.793	7048.81
192.869	7035.6
192.944	7048.28
193.02	7075.82
193.095	7096.04
193.171	7112.14
193.246	7111.66
193.322	7105.12
193.397	7107.86
193.473	7061.38
193.548	6991.89
193.624	7014.77
193.699	7008.95
193.775	7062.94
193.85	7064.72
193.925	7088.22
194.001	7092.73
194.076	7064.62
194.152	7028.86
194.227	6999.79
194.302	6967.18
194.378	6981.69
194.453	6972.33
194.529	7013.31
194.604	6964.93
194.679	6943.31
194.755	6882.42
194.83	6927.91
194.905	6920.03
194.981	6953.52
195.056	6925.72
195.131	6946.66
195.207	6939.69
195.282	6908.18
195.357	6840.93
195.433	6896.71
195.508	6856.68
195.583	6877.1
195.659	6927.27
195.734	6947.26
195.809	6944.28
195.884	6977.65
195.96	6977.94
196.035	7027.81
196.11	7010.89
196.185	7055.62
196.261	7065.37
196.336	7168.96
196.411	7117.47
196.486	7138.13
196.561	7115.4
196.637	7151.71
196.712	7209.35
196.787	7221.32
196.862	7269.03
196.937	7304.05
197.013	7321.07
197.088	7356.53
197.163	7426.64
197.238	7489.44
197.313	7491.98
197.388	7542.17
197.464	7639.7
197.539	7678.82
197.614	7659.5
197.689	7705.04
197.764	7755.78
197.839	7819.92
197.914	7799.48
197.989	7871.08
198.065	7909.11
198.14	8076.05
198.215	8161.95
198.29	8197.47
198.365	8236.38
198.44	8273.75
198.515	8366.42
198.59	8418.91
198.665	8509.8
198.74	8535.36
198.815	8535.36
198.89	8609.45
198.965	8707.17
199.04	8696.78
199.115	8750.13
199.19	8884.24
199.265	8891.07
199.34	8927.46
199.415	9041.64
199.49	9109.34
199.565	9141.4
199.64	9233.54
199.715	9225.64
199.79	9251.35
199.865	9276.48
199.94	9275.37
200.015	9382.07
200.09	9400.13
200.165	9419.15
200.24	9437.84
200.315	9575.1
200.39	9620.12
200.464	9640.49
200.539	9641.6
200.614	9696.54
200.689	9773.6
200.764	9801.15
200.839	9859.59
200.914	9875
200.989	9835.35
201.063	9886.4
201.138	9826.34
201.213	9817.77
201.288	9750.83
201.363	9769.23
201.438	9766.92
201.512	9818.81
201.587	9757.88
201.662	9765.69
201.737	9806.53
201.812	9833.84
201.886	9722.58
201.961	9759.01
202.036	9726.8
202.111	9714.8
202.186	9612.29
202.26	9554.39
202.335	9478.39
202.41	9456.82
202.485	9401.07
202.559	9341.08
202.634	9251.33
202.709	9287.03
202.784	9226.13
202.858	9225.4
202.933	9156.46
203.008	9137.97
203.082	9078.23
203.157	9073.52
203.232	8932.69
203.306	8857.95
203.381	8747.66
203.456	8670.84
203.53	8588.67
203.605	8514.73
203.68	8438.34
203.754	8419.01
203.829	8372.71
203.904	8305.6
203.978	8265.51
204.053	8275.71
204.127	8231.21
204.202	8220.29
204.277	8158.1
204.351	8131.15
204.426	8108.39
204.5	8085.11
204.575	7960.2
204.65	7988.98
204.724	7965.44
204.799	7991.92
204.873	7977.48
204.948	7972.19
205.022	7931.9
205.097	7900.33
205.171	7941.49
205.246	7971.8
205.32	7968.34
205.395	7961.46
205.469	7934.22
205.544	7953.13
205.618	7895.21
205.693	7937.59
205.767	7899.36
205.842	7973.35
205.916	7952.39
205.991	7919.92
206.065	7938.3
206.14	7997.01
206.214	7975.64
206.289	7952.2
206.363	7995.73
206.438	8007.42
206.512	8034.07
206.586	8101.06
206.661	8133.7
206.735	8063.42
206.81	8066.65
206.884	8122.91
206.958	8085.45
207.033	8144.87
207.107	8173.76
207.181	8279.09
207.256	8251.62
207.33	8313.86
207.405	8353.64
207.479	8423.49
207.553	8443.98
207.628	8389.69
207.702	8431.45
207.776	8409.41
207.851	8413.84
207.925	8463.03
207.999	8448.21
208.073	8444.46
208.148	8451.63
208.222	8413.75
208.296	8521.81
208.371	8572.51
208.445	8604.71
208.519	8694.39
208.593	8732.94
208.668	8713.63
208.742	8724.33
208.816	8736.64
208.89	8780.69
208.965	8772.17
209.039	8792.97
209.113	8851.3
209.187	8919.73
209.261	8901.11
209.336	8974.61
209.41	9049.52
209.484	9051.69
209.558	9129.15
209.632	9173.04
209.707	9211.13
209.781	9280.4
209.855	9333.71
209.929	9394.42
210.003	9416.52
210.077	9419.6
210.151	9575.66
210.226	9691.79
210.3	9774.91
210.374	9853.62
210.448	9876.74
210.522	9917.69
210.596	9951.26
210.67	9985.89
210.744	10136.08
210.818	10248.99
210.892	10314.65
210.966	10294.52
211.041	10347.61
211.115	10332.53
211.189	10410.52
211.263	10464.71
211.337	10487.74
211.411	10542.28
211.485	10522.52
211.559	10551.28
211.633	10559.08
211.707	10449.64
211.781	10472.44
211.855	10358.4
211.929	10327.1
212.003	10259.4
212.077	10284.02
212.151	10326.28
212.225	10356.05
212.299	10326.65
212.373	10278.44
212.447	10262.82
212.52	10358.89
212.594	10366.65
212.668	10405.86
212.742	10355.17
212.816	10330.6
212.89	10308.73
212.964	10294.18
213.038	10291.38
213.112	10342.99
213.186	10382.97
213.26	10305.26
213.333	10146.89
213.407	10162.54
213.481	10164.17
213.555	10191.61
213.629	10148.2
213.703	10087.88
213.777	10072.75
213.85	9995.86
213.924	10105.91
213.998	10090.92
214.072	10050.98
214.146	9994.37
214.219	9973.9
214.293	9949.05
214.367	9947.75
214.441	9969.04
214.515	9919.7
214.588	9829.54
214.662	9692.66
214.736	9612.29
214.81	9630.34
214.883	9648.87
214.957	9590.86
215.031	9534.6
215.105	9442.95
215.178	9373.85
215.252	9331.53
215.326	9224.11
215.4	9144.71
215.473	8963.86
215.547	8880.94
215.621	8817.02
215.694	8812.01
215.768	8710.93
215.842	8639.23
215.915	8562.38
215.989	8446.8
216.063	8382.81
216.136	8366.5
216.21	8339.13
216.284	8346.25
216.357	8317.67
216.431	8272.44
216.504	8270.13
216.578	8323.17
216.652	8337.01
216.725	8315.84
216.799	8324.5
216.873	8312.53
216.946	8314.59
217.02	8271.9
217.093	8235.73
217.167	8142.06
217.24	8061.31
217.314	8027.7
217.387	7983.92
217.461	7936.11
217.535	7958.96
217.608	7897.49
217.682	7863.92
217.755	7877.72
217.829	7818.69
217.902	7801.33
217.976	7780.27
218.049	7736.08
218.123	7660.49
218.196	7663.95
218.27	7627.64
218.343	7552.11
218.417	7548.5
218.49	7524.13
218.563	7568.11
218.637	7579.75
218.71	7648.58
218.784	7672.2
218.857	7701.38
218.931	7725.84
219.004	7737.09
219.077	7754.89
219.151	7771.23
219.224	7764.79
219.298	7761.86
219.371	7810.53
219.444	7771.55
219.518	7784.29
219.591	7798.81
219.665	7903.78
219.738	7914.31
219.811	7892.78
219.885	7942.9
219.958	7970.27
220.031	7972.67
220.105	7996.2
220.178	8002.06
220.251	7973.63
220.325	7996.53
220.398	8017.07
220.471	8042.99
220.544	8081.57
220.618	8058.38
220.691	8088.68
220.764	8106.04
220.838	8129.9
220.911	8115.75
220.984	8204.38
221.057	8240.41
221.131	8265.52
221.204	8170.65
221.277	8237.26
221.35	8362.29
221.424	8352.24
221.497	8367.44
221.57	8394.03
221.643	8417.96
221.716	8464.4
221.79	8467
221.863	8475.66
221.936	8482.78
222.009	8491.34
222.082	8518.2
222.155	8522.87
222.229	8583.86
222.302	8621.05
222.375	8629.86
222.448	8667.11
222.521	8673.22
222.594	8674.76
222.667	8647.78
222.74	8703.16
222.814	8695.41
222.887	8678.51
222.96	8733.62
223.033	8774.45
223.106	8803.6
223.179	8837.12
223.252	8844.48
223.325	8880.91
223.398	8892.47
223.471	8925.44
223.544	8949.98
223.617	8958.45
223.69	8983.91
223.763	8948.13
223.837	8967.54
223.91	8997.43
223.983	8950.9
224.056	8919.81
224.129	8945.7
224.202	9006.46
224.275	8995.44
224.348	8968.29
224.42	8937.15
224.493	8877.22
224.566	8856.13
224.639	8869.27
224.712	8841.82
224.785	8835.08
224.858	8824.49
224.931	8815.54
225.004	8771.17
225.077	8767.56
225.15	8682.35
225.223	8685.24
225.296	8769.61
225.369	8713.98
225.442	8682.88
225.514	8702.7
225.587	8720.99
225.66	8720.7
225.733	8714.68
225.806	8723.54
225.879	8719.79
225.952	8689.96
226.025	8730.38
226.097	8777.72
226.17	8771.7
226.243	8707.71
226.316	8698.94
226.389	8705.44
226.461	8720.95
226.534	8746.93
226.607	8742.69
226.68	8825.3
226.753	8819.14
226.825	8731.73
226.898	8786.36
226.971	8788.09
227.044	8804.12
227.117	8810.61
227.189	8834.54
227.262	8871.23
227.335	8888.95
227.407	8879.95
227.48	8909.59
227.553	8928.46
227.626	8906.93
227.698	8910.3
227.771	8952.25
227.844	8932.71
227.916	8948.12
227.989	8909.99
228.062	8904.26
228.134	8988.62
228.207	8990.84
228.28	8980.54
228.352	8995.94
228.425	9002.15
228.498	9046.16
228.57	9029.51
228.643	9081.03
228.716	9081.32
228.788	9070.34
228.861	9065
228.934	9132.05
229.006	9144.23
229.079	9139.22
229.151	9128.29
229.224	9095.38
229.296	9124.5
229.369	9225.25
229.442	9272.16
229.514	9249.02
229.587	9296.24
229.659	9222.71
229.732	9235.42
229.804	9275.52
229.877	9358.56
229.949	9388.08
230.022	9442.81
230.094	9442.52
230.167	9434.67
230.239	9385.09
230.312	9373.63
230.384	9449.54
230.457	9445.45
230.529	9454.11
230.602	9462.64
230.674	9475.88
230.747	9519.19
230.819	9548.18
230.892	9436.99
230.964	9436.17
231.037	9470.29
231.109	9458.83
231.181	9498.5
231.254	9467.68
231.326	9457.04
231.399	9429.43
231.471	9410.36
231.544	9323.76
231.616	9370.31
231.688	9385
231.761	9379.85
231.833	9368.54
231.905	9275.68
231.978	9266.96
232.05	9251.08
232.122	9251.08
232.195	9223.34
232.267	9263.21
232.339	9237.4
232.412	9304.41
232.484	9284.28
232.556	9255.98
232.629	9322.94
232.701	9340.42
232.773	9352.12
232.846	9342.88
232.918	9350.63
232.99	9368.36
233.062	9416.13
233.135	9431.68
233.207	9391.86
233.279	9435.27
233.351	9470.52
233.424	9477.16
233.496	9458.86
233.568	9548.49
233.64	9511.03
233.713	9529.28
233.785	9523.75
233.857	9541.47
233.929	9485.76
234.001	9553.07
234.074	9627.97
234.146	9555.52
234.218	9549.89
234.29	9545.36
234.362	9533.91
234.434	9486.18
234.507	9449.72
234.579	9398
234.651	9380.42
234.723	9407.25
234.795	9426.94
234.867	9420.35
234.939	9478.09
235.012	9496.43
235.084	9496.19
235.156	9541.06
235.228	9520.99
235.3	9510.87
235.372	9521.52
235.444	9581.99
235.516	9497.69
235.588	9499.85
235.66	9524.6
235.732	9498.74
235.804	9697.61
235.876	9745.46
235.948	9809.72
236.02	9828.07
236.092	9841.79
236.164	9851.81
236.236	9855.03
236.308	9852.72
236.38	9878.05
236.452	9860.71
236.524	9883.54
236.596	9943.54
236.668	9971.82
236.74	10002.44
236.812	10027.15
236.884	10060.1
236.956	10076.96
237.028	10067.58
237.1	10051.15
237.172	10120.29
237.244	10197.36
237.316	10084.48
237.388	10070.42
237.46	10055.53
237.532	10112.66
237.604	10104.77
237.675	10174.04
237.747	10221.6
237.819	10210.23
237.891	10219.05
237.963	10209.89
238.035	10206.33
238.107	10096.09
238.178	10160.8
238.25	10163.89
238.322	10258.67
238.394	10212.67
238.466	10210.74
238.538	10264.44
238.609	10308.95
238.681	10254.36
238.753	10228.58
238.825	10239.9
238.897	10267.02
238.968	10338.87
239.04	10314.78
239.112	10427.6
239.184	10395.22
239.255	10393.15
239.327	10422.63
239.399	10449.08
239.471	10493.88
239.542	10525.19
239.614	10603.91
239.686	10525.42
239.758	10582.56
239.829	10539.13
239.901	10608.27
239.973	10621.9
240.044	10648.55
240.116	10658.57
240.188	10672.78
240.259	10697.84
240.331	10694.85
240.403	10736.43
240.474	10691.65
240.546	10688.86
240.618	10632.67
240.689	10629.74
240.761	10649.2
240.833	10725.24
240.904	10718.83
240.976	10725.34
241.048	10744.37
241.119	10769.58
241.191	10815.64
241.262	10884.18
241.334	10897
241.405	10899.89
241.477	10906.63
241.549	10923.84
241.62	10955.16
241.692	11002.53
241.763	11056.94
241.835	11076.75
241.906	11092.99
241.978	11063.98
242.049	11131.92
242.121	11194.18
242.192	11262.51
242.264	11232.4
242.335	11184.59
242.407	11233.65
242.478	11233.46
242.55	11254.28
242.621	11246.56
242.693	11248.3
242.764	11234.32
242.836	11235.14
242.907	11269.41
242.979	11302.18
243.05	11317.31
243.122	11341.5
243.193	11339.96
243.264	11270.03
243.336	11270.32
243.407	11307.43
243.479	11391.29
243.55	11413.85
243.622	11427.39
243.693	11423.92
243.764	11488.5
243.836	11464.31
243.907	11455.93
243.978	11463.64
244.05	11491.78
244.121	11438.87
244.192	11479.84
244.264	11431.01
244.335	11436.22
244.407	11385.42
244.478	11395.64
244.549	11398
244.62	11352.65
244.692	11347.4
244.763	11396.36
244.834	11388.79
244.906	11364.5
244.977	11382.24
245.048	11425.77
245.119	11401.04
245.191	11381.71
245.262	11320.75
245.333	11399.73
245.405	11422.19
245.476	11456.89
245.547	11474.39
245.618	11535.25
245.689	11544.31
245.761	11583.16
245.832	11594.05
245.903	11636.85
245.974	11667.94
246.045	11673.14
246.117	11760.72
246.188	11748.86
246.259	11730.55
246.33	11749.73
246.401	11758.65
246.473	11720.96
246.544	11708.81
246.615	11770.94
246.686	11775.23
246.757	11846.6
246.828	11820.53
246.899	11891.49
246.97	11855.58
247.042	11844.3
247.113	11883.44
247.184	11975.32
247.255	11974.21
247.326	12001.45
247.397	12012.44
247.468	12027.04
247.539	12041.7
247.61	11994.84
247.681	12041.45
247.752	12097.45
247.823	12068.73
247.894	12093.07
247.965	12068.25
248.037	12057.89
248.108	12000.96
248.179	12004.67
248.25	11998.84
248.321	12031.42
248.392	11974.64
248.463	12061.01
248.534	12056.14
248.605	12085.93
248.675	12053.44
248.746	12075.18
248.817	12095.13
248.888	12114.61
248.959	12056.53
249.03	12082.03
249.101	12090.65
249.172	12076.05
249.243	12006.31
249.314	12082.03
249.385	12080.63
249.456	12120.4
249.527	12111.19
249.598	12137.22
249.669	12146.18
249.739	12166.38
249.81	12185.95
249.881	12150.09
249.952	12141.46
250.023	12143.24
250.094	12083.32
250.165	12057.1
250.235	12054.16
250.306	12059.27
250.377	12024.66
250.448	12052.57
250.519	11992.36
250.59	12051.46
250.66	12054.07
250.731	12122.99
250.802	12116.58
250.873	12141.4
250.944	12153.45
251.014	12145.16
251.085	12240.99
251.156	12272.9
251.227	12323.18
251.297	12370.28
251.368	12422.04
251.439	12464.22
251.51	12521.73
251.58	12513.59
251.651	12510.26
251.722	12562.18
251.792	12512.82
251.863	12526.8
251.934	12594.57
252.005	12705.05
252.075	12715.22
252.146	12764.73
252.217	12812.59
252.287	12860.85
252.358	12861.04
252.429	12937.83
252.499	12933.88
252.57	12940.63
252.641	12978.76
252.711	12977.99
252.782	12940.1
252.852	13013.23
252.923	13015.83
252.994	13026.24
253.064	13068.9
253.135	13051.16
253.205	13026.68
253.276	13106.94
253.347	13163.77
253.417	13136.39
253.488	13126.36
253.558	13110.79
253.629	13112.72
253.699	13137.69
253.77	13157.41
253.841	13159.57
253.911	13173.89
253.982	13193.7
254.052	13224.31
254.123	13232.22
254.193	13240.85
254.264	13374.43
254.334	13345.94
254.405	13313.16
254.475	13281.87
254.546	13292.38
254.616	13359.38
254.687	13390.14
254.757	13407.01
254.827	13406.29
254.898	13433.24
254.968	13436.13
255.039	13420.12
255.109	13447.51
255.18	13409.57
255.25	13345.36
255.321	13370.23
255.391	13315.81
255.461	13403.3
255.532	13318.51
255.602	13318.51
255.673	13265.77
255.743	13226.92
255.813	13157.21
255.884	13201.61
255.954	13232.36
256.024	13299.08
256.095	13302.22
256.165	13261.77
256.235	13284.43
256.306	13272.91
256.376	13312.53
256.446	13348.25
256.517	13385.42
256.587	13436.42
256.657	13462.41
256.728	13482.27
256.798	13498.75
256.868	13507.33
256.938	13472.19
257.009	13521.31
257.079	13553.27
257.149	13649.98
257.219	13587.84
257.29	13620.33
257.36	13569.52
257.43	13615.07
257.5	13548.21
257.571	13532.74
257.641	13570.53
257.711	13539.97
257.781	13579.69
257.852	13606.44
257.922	13551.01
257.992	13547.54
258.062	13535.48
258.132	13572.6
258.202	13572.75
258.273	13588.17
258.343	13664.39
258.413	13653.64
258.483	13659.86
258.553	13627.89
258.623	13604.8
258.693	13633.15
258.764	13706.81
258.834	13773.57
258.904	13792.09
258.974	13779.94
259.044	13794.01
259.114	13828.34
259.184	13852.3
259.254	13861.84
259.324	13808.28
259.394	13856.63
259.464	13944.46
259.535	13952.23
259.605	13944.32
259.675	13951.21
259.745	13983.27
259.815	13962.01
259.885	13964.47
259.955	14071.09
260.025	14059.91
260.095	14067.29
260.165	14100.02
260.235	14160.08
260.305	14148.17
260.375	14111.87
260.445	14208
260.515	14278.52
260.585	14321.71
260.655	14333.91
260.725	14367.7
260.795	14404.38
260.865	14466.33
260.934	14434.32
261.004	14467.24
261.074	14473.75
261.144	14525.62
261.214	14555.94
261.284	14554.35
261.354	14594.22
261.424	14554.74
261.494	14635.54
261.564	14642.82
261.634	14677.67
261.703	14606.42
261.773	14633.66
261.843	14671.74
261.913	14664.8
261.983	14598.52
262.053	14620.16
262.123	14619.73
262.192	14582.51
262.262	14628.4
262.332	14585.45
262.402	14614.52
262.472	14621.85
262.541	14563.27
262.611	14607.24
262.681	14588.29
262.751	14627.58
262.821	14631.77
262.89	14602.85
262.96	14614.95
263.03	14690.92
263.1	14706.2
263.169	14727.7
