Data from 20250701_urea_2M_exp3_MAYP1162681_16-39-48-639.txt Node
Date: Tue Jul 01 16:39:48 BST 2025
User: adleo
Spectrometer: MAYP116268
Trigger mode: 0
Integration Time (sec): 4.000000E0
Scans to average: 1
Electric dark correction enabled: true
Nonlinearity correction enabled: true
Boxcar width: 10
XAxis mode: Wavelengths
Number of Pixels in Spectrum: 2068
>>>>>Begin Spectral Data<<<<<
179.565	4138.04
179.642	4357.11
179.718	4526.11
179.795	4670.61
179.871	4797.11
179.948	4865.73
180.024	4944.94
180.101	5027.28
180.177	5085.36
180.254	5173.17
180.33	5258.28
180.407	5563.39
180.483	5883.92
180.56	6211.43
180.636	6511.73
180.712	6466.33
180.789	6503.64
180.865	6553.45
180.942	6580.91
181.018	6620.62
181.095	6668.19
181.171	6686.35
181.248	6685.82
181.324	6741.56
181.4	6771.68
181.477	6809.87
181.553	6858.65
181.63	6937.59
181.706	7001.4
181.782	7029.87
181.859	7029.29
181.935	7051.78
182.011	7038.66
182.088	7102.39
182.164	7173.35
182.24	7225.9
182.317	7263.52
182.393	7257.8
182.469	7304.13
182.546	7353.39
182.622	7374.92
182.698	7358.91
182.775	7400.01
182.851	7451.72
182.927	7420
183.003	7404.43
183.08	7384.97
183.156	7419.72
183.232	7404.47
183.308	7358.57
183.385	7389.71
183.461	7448.74
183.537	7452.63
183.613	7498.45
183.69	7465.85
183.766	7426.36
183.842	7452.86
183.918	7474.73
183.995	7525.97
184.071	7541.12
184.147	7519.15
184.223	7478.36
184.299	7524.43
184.375	7486.55
184.452	7509.4
184.528	7647.98
184.604	7686.24
184.68	7730.12
184.756	7758.84
184.832	7778.41
184.908	7799.36
184.985	7797.1
185.061	7743.59
185.137	7774.03
185.213	7731.87
185.289	7733.17
185.365	7705.49
185.441	7698.99
185.517	7745.85
185.593	7731.86
185.669	7716.23
185.745	7758.88
185.822	7815.25
185.898	7785.29
185.974	7818.69
186.05	7792.76
186.126	7714.14
186.202	7691.84
186.278	7677.03
186.354	7639.71
186.43	7666.51
186.506	7664.92
186.582	7665.5
186.658	7689.43
186.734	7616.32
186.81	7623.82
186.886	7636.51
186.962	7680.01
187.038	7669.43
187.114	7636.62
187.19	7666.77
187.266	7635.92
187.341	7635.29
187.417	7612.17
187.493	7614.52
187.569	7624.43
187.645	7599.72
187.721	7561.19
187.797	7588.5
187.873	7604.75
187.949	7587.74
188.025	7556.56
188.101	7569.16
188.176	7588.29
188.252	7572.19
188.328	7603.08
188.404	7601.83
188.48	7584.14
188.556	7560.58
188.632	7551.69
188.707	7556.79
188.783	7541.35
188.859	7525.64
188.935	7482.94
189.011	7505.48
189.086	7476.88
189.162	7448.33
189.238	7442.85
189.314	7431.98
189.39	7405.35
189.465	7380.4
189.541	7437.91
189.617	7386.53
189.693	7360.05
189.768	7370.77
189.844	7458.65
189.92	7426.61
189.996	7455.98
190.071	7498.91
190.147	7496.85
190.223	7533.25
190.298	7505.36
190.374	7460.27
190.45	7502.12
190.526	7534.53
190.601	7521.31
190.677	7528.08
190.753	7632.01
190.828	7646.52
190.904	7700.38
190.98	7758.91
191.055	7797
191.131	7771.31
191.207	7846.12
191.282	7883.51
191.358	7849.76
191.433	7795.43
191.509	7847.81
191.585	7843.82
191.66	7843.29
191.736	7872.09
191.811	7836.27
191.887	7893.56
191.963	7975.36
192.038	7995.51
192.114	7996.33
192.189	8011.48
192.265	8002.01
192.34	7922.27
192.416	7915.63
192.491	7900.77
192.567	7909.72
192.642	7915.88
192.718	7909.43
192.793	7865.96
192.869	7851.15
192.944	7852.4
193.02	7884.97
193.095	7896.32
193.171	7917.82
193.246	7912.62
193.322	7906.03
193.397	7909.16
193.473	7856.81
193.548	7789.47
193.624	7812.62
193.699	7803.62
193.775	7856.11
193.85	7862.94
193.925	7890.79
194.001	7890.36
194.076	7865.16
194.152	7830.47
194.227	7802.28
194.302	7768.16
194.378	7783.74
194.453	7771.48
194.529	7823.03
194.604	7767.63
194.679	7750.03
194.755	7676.91
194.83	7726.28
194.905	7713.16
194.981	7745.33
195.056	7726.39
195.131	7752.98
195.207	7744.94
195.282	7715.33
195.357	7642.74
195.433	7700.11
195.508	7656.15
195.583	7681.34
195.659	7729.54
195.734	7753.59
195.809	7748.3
195.884	7779.64
195.96	7776.08
196.035	7836.24
196.11	7821.23
196.185	7859.36
196.261	7871.96
196.336	7991.37
196.411	7937.29
196.486	7959.89
196.561	7936.66
196.637	7964.98
196.712	8023.3
196.787	8034.85
196.862	8089.48
196.937	8130.69
197.013	8148.45
197.088	8185.29
197.163	8267.3
197.238	8330.32
197.313	8329.12
197.388	8382.57
197.464	8493.26
197.539	8539.01
197.614	8513.04
197.689	8553.51
197.764	8621.81
197.839	8689.66
197.914	8661.65
197.989	8741.97
198.065	8788.75
198.14	8976.07
198.215	9072.43
198.29	9119.1
198.365	9161.13
198.44	9203.39
198.515	9301.42
198.59	9358.33
198.665	9453.28
198.74	9481.45
198.815	9488.1
198.89	9567.78
198.965	9676.49
199.04	9662.57
199.115	9715.92
199.19	9868.75
199.265	9881.41
199.34	9916.1
199.415	10036.3
199.49	10114.46
199.565	10155.21
199.64	10244.27
199.715	10237.52
199.79	10253.18
199.865	10267.1
199.94	10264.98
200.015	10376.75
200.09	10396.08
200.165	10409.52
200.24	10431.68
200.315	10575.16
200.39	10623.48
200.464	10645.16
200.539	10652.44
200.614	10710.49
200.689	10795.97
200.764	10815.58
200.839	10882.58
200.914	10897.57
200.989	10861.9
201.063	10913.99
201.138	10850.8
201.213	10851.96
201.288	10778.58
201.363	10804.98
201.438	10809.99
201.512	10867.07
201.587	10803.61
201.662	10818.16
201.737	10869.82
201.812	10904.03
201.886	10779.78
201.961	10820.07
202.036	10779.8
202.111	10771.02
202.186	10665.07
202.26	10605.46
202.335	10531.16
202.41	10507.22
202.485	10441.27
202.559	10366.99
202.634	10265.77
202.709	10297.07
202.784	10219.95
202.858	10215.76
202.933	10141.77
203.008	10115.18
203.082	10048.99
203.157	10047.5
203.232	9893.57
203.306	9816.48
203.381	9696.15
203.456	9617.31
203.53	9530.52
203.605	9460.24
203.68	9369.97
203.754	9348.41
203.829	9290.52
203.904	9216.28
203.978	9170.77
204.053	9186.52
204.127	9136.21
204.202	9137.37
204.277	9067.57
204.351	9048.84
204.426	9025.05
204.5	8999.63
204.575	8873.36
204.65	8906.3
204.724	8869.55
204.799	8896.77
204.873	8881.65
204.948	8874.43
205.022	8832.33
205.097	8796.69
205.171	8842.79
205.246	8877.03
205.32	8869.58
205.395	8872.13
205.469	8840.81
205.544	8871.1
205.618	8811.32
205.693	8861.62
205.767	8810.46
205.842	8891.05
205.916	8870.6
205.991	8825.73
206.065	8847.2
206.14	8904.91
206.214	8883.82
206.289	8863.4
206.363	8910.09
206.438	8923.43
206.512	8954.29
206.586	9019.41
206.661	9055.29
206.735	8978.79
206.81	8976.82
206.884	9032.88
206.958	8979.46
207.033	9038.79
207.107	9057.19
207.181	9171.7
207.256	9150.42
207.33	9225.7
207.405	9272.05
207.479	9338.11
207.553	9370.74
207.628	9308.43
207.702	9355.51
207.776	9329.89
207.851	9339.42
207.925	9394.77
207.999	9374.93
208.073	9365.78
208.148	9381.67
208.222	9337.85
208.296	9453.79
208.371	9511.84
208.445	9557.45
208.519	9670.02
208.593	9710.85
208.668	9694.09
208.742	9701.65
208.816	9703.58
208.89	9746.31
208.965	9738.65
209.039	9768.37
209.113	9830.26
209.187	9907.7
209.261	9889.88
209.336	9969.64
209.41	10050.33
209.484	10049.94
209.558	10135.69
209.632	10185.83
209.707	10225.52
209.781	10301
209.855	10356.27
209.929	10414.34
210.003	10432.8
210.077	10424.75
210.151	10600.18
210.226	10728.22
210.3	10833.68
210.374	10921.92
210.448	10938.93
210.522	10976.52
210.596	11012.76
210.67	11046.93
210.744	11218.96
210.818	11336.12
210.892	11406.2
210.966	11379.99
211.041	11437.57
211.115	11423.31
211.189	11511.65
211.263	11569.09
211.337	11597.47
211.411	11652.03
211.485	11636.76
211.559	11678.97
211.633	11684.27
211.707	11568.15
211.781	11591.1
211.855	11455.67
211.929	11425.6
212.003	11348.14
212.077	11387.8
212.151	11433.93
212.225	11465.69
212.299	11423.51
212.373	11377.49
212.447	11356.81
212.52	11463.66
212.594	11472.29
212.668	11509.98
212.742	11450.21
212.816	11425.15
212.89	11396.09
212.964	11380.57
213.038	11383.61
213.112	11428.38
213.186	11480.81
213.26	11399.88
213.333	11228.48
213.407	11239.6
213.481	11236.38
213.555	11280.69
213.629	11220.01
213.703	11146.51
213.777	11126.51
213.85	11049.88
213.924	11165.46
213.998	11153.7
214.072	11113.06
214.146	11054.99
214.219	11029.11
214.293	11002.42
214.367	10998.22
214.441	11022.99
214.515	10970.51
214.588	10867.82
214.662	10722.45
214.736	10632.26
214.81	10648.82
214.883	10665.25
214.957	10606.77
215.031	10547.3
215.105	10447.92
215.178	10378.35
215.252	10337.26
215.326	10230.6
215.4	10130.15
215.473	9930.86
215.547	9841.44
215.621	9767.18
215.694	9756.78
215.768	9653.32
215.842	9583.15
215.915	9501.4
215.989	9376.36
216.063	9311.13
216.136	9289.51
216.21	9256.05
216.284	9265.87
216.357	9241.03
216.431	9191.44
216.504	9192.93
216.578	9248.79
216.652	9256.59
216.725	9229.67
216.799	9234.15
216.873	9215.9
216.946	9226.78
217.02	9181.94
217.093	9148.62
217.167	9044.25
217.24	8952.9
217.314	8915.27
217.387	8865.96
217.461	8816.62
217.535	8838.95
217.608	8771.47
217.682	8739.36
217.755	8751.87
217.829	8688.23
217.902	8663.15
217.976	8644.62
218.049	8587.06
218.123	8509.68
218.196	8511.41
218.27	8476.57
218.343	8402.19
218.417	8395.74
218.49	8371.34
218.563	8418.69
218.637	8430.72
218.71	8503.74
218.784	8537.14
218.857	8568.71
218.931	8590.69
219.004	8597.57
219.077	8621.74
219.151	8642.05
219.224	8634.39
219.298	8636.66
219.371	8690.57
219.444	8651.32
219.518	8663.68
219.591	8688.65
219.665	8801.4
219.738	8816.27
219.811	8797.89
219.885	8846.22
219.958	8881.36
220.031	8884.01
220.105	8906.87
220.178	8908.27
220.251	8882.56
220.325	8904.18
220.398	8931.86
220.471	8954.96
220.544	8995.92
220.618	8968.96
220.691	8997.74
220.764	9023.11
220.838	9055.32
220.911	9033.22
220.984	9122.6
221.057	9163.23
221.131	9189.03
221.204	9084.56
221.277	9163.97
221.35	9298.98
221.424	9288.92
221.497	9297.73
221.57	9333.3
221.643	9364.27
221.716	9418.83
221.79	9422.59
221.863	9434.68
221.936	9435.35
222.009	9453.6
222.082	9493.72
222.155	9504.17
222.229	9577.48
222.302	9605.07
222.375	9612.24
222.448	9657.56
222.521	9659.44
222.594	9659.29
222.667	9622.23
222.74	9683.63
222.814	9675.72
222.887	9652.69
222.96	9719.84
223.033	9775.62
223.106	9801.14
223.179	9838.53
223.252	9854.96
223.325	9893.1
223.398	9909.76
223.471	9943.76
223.544	9970.59
223.617	9981.81
223.69	10009.26
223.763	9971.64
223.837	9999.04
223.91	10028.09
223.983	9973.29
224.056	9945.26
224.129	9973.1
224.202	10041.51
224.275	10030.72
224.348	9996.57
224.42	9963.29
224.493	9891.38
224.566	9859.34
224.639	9879.66
224.712	9848.88
224.785	9830.23
224.858	9817.37
224.931	9795.89
225.004	9751.2
225.077	9744.02
225.15	9638.09
225.223	9633.9
225.296	9718.9
225.369	9658.17
225.442	9619.78
225.514	9641.54
225.587	9666.29
225.66	9672.65
225.733	9670.92
225.806	9683.54
225.879	9678
225.952	9641.7
226.025	9696.74
226.097	9753.17
226.17	9742.28
226.243	9671.59
226.316	9663.88
226.389	9672.75
226.461	9703.38
226.534	9730.3
226.607	9727.99
226.68	9827.95
226.753	9826.5
226.825	9736.64
226.898	9799.87
226.971	9809.07
227.044	9836.23
227.117	9843.51
227.189	9863.11
227.262	9906.86
227.335	9923.53
227.407	9914.09
227.48	9957.52
227.553	9969.66
227.626	9951.4
227.698	9957.9
227.771	10008.79
227.844	9994.34
227.916	10011.73
227.989	9967.75
228.062	9969.48
228.134	10066.52
228.207	10066.18
228.28	10062.52
228.352	10073.89
228.425	10080.54
228.498	10132.08
228.57	10105.64
228.643	10169.72
228.716	10173.05
228.788	10160.52
228.861	10155.22
228.934	10229.93
229.006	10239.81
229.079	10248.67
229.151	10234.99
229.224	10202.43
229.296	10227.05
229.369	10340.38
229.442	10396.08
229.514	10379.91
229.587	10424.37
229.659	10337.4
229.732	10352.05
229.804	10396.32
229.877	10487.59
229.949	10526.43
230.022	10577.75
230.094	10589.31
230.167	10577.99
230.239	10528.71
230.312	10516.32
230.384	10600.56
230.457	10597.43
230.529	10599.65
230.602	10604.51
230.674	10619.88
230.747	10671.47
230.819	10706.01
230.892	10577.46
230.964	10582.43
231.037	10612.62
231.109	10606.65
231.181	10650.77
231.254	10615.02
231.326	10602.84
231.399	10574.64
231.471	10542.4
231.544	10463.18
231.616	10512.31
231.688	10523.54
231.761	10520.08
231.833	10510.63
231.905	10414.88
231.978	10412.67
232.05	10402.84
232.122	10406.55
232.195	10379.76
232.267	10418.36
232.339	10397.39
232.412	10465.03
232.484	10441.61
232.556	10416.03
232.629	10490.93
232.701	10519.07
232.773	10535.74
232.846	10526.68
232.918	10541.28
232.99	10565.86
233.062	10613.9
233.135	10628.79
233.207	10584.84
233.279	10634.84
233.351	10676.76
233.424	10686.15
233.496	10659.41
233.568	10756.7
233.64	10719.41
233.713	10742.39
233.785	10742.25
233.857	10766.92
233.929	10717.59
234.001	10788.73
234.074	10862
234.146	10790.38
234.218	10791.73
234.29	10794.28
234.362	10781.47
234.434	10734.48
234.507	10697.62
234.579	10636.91
234.651	10615.66
234.723	10658.3
234.795	10681
234.867	10677.92
234.939	10738.3
235.012	10765.66
235.084	10775.2
235.156	10814.95
235.228	10791.87
235.3	10775.1
235.372	10780.69
235.444	10854.85
235.516	10770.17
235.588	10782.41
235.66	10801.44
235.732	10772.77
235.804	10983.02
235.876	11035.68
235.948	11102.71
236.02	11125.07
236.092	11146.27
236.164	11162.84
236.236	11159.81
236.308	11161.64
236.38	11189.64
236.452	11172.29
236.524	11194.12
236.596	11257.79
236.668	11299
236.74	11330.17
236.812	11363.33
236.884	11406.8
236.956	11412.01
237.028	11405.02
237.1	11391.72
237.172	11469.37
237.244	11552.85
237.316	11429.87
237.388	11417.73
237.46	11392.14
237.532	11453.01
237.604	11444.57
237.675	11526.27
237.747	11575.34
237.819	11566.66
237.891	11575.24
237.963	11565.02
238.035	11570.08
238.107	11452.52
238.178	11520.06
238.25	11529.5
238.322	11632.85
238.394	11580.51
238.466	11586.68
238.538	11640.31
238.609	11686.34
238.681	11628.16
238.753	11601.26
238.825	11629.27
238.897	11660.16
238.968	11759.17
239.04	11749.82
239.112	11881.63
239.184	11839.51
239.255	11846.78
239.327	11885.44
239.399	11913.25
239.471	11975.95
239.542	12017.02
239.614	12100.01
239.686	12011.76
239.758	12078.37
239.829	12037.97
239.901	12115.62
239.973	12135.72
240.044	12173.12
240.116	12190.81
240.188	12213.85
240.259	12244.94
240.331	12241.42
240.403	12286.2
240.474	12232.02
240.546	12218.23
240.618	12152.97
240.689	12152.92
240.761	12179.38
240.833	12251.93
240.904	12254
240.976	12245.37
241.048	12266.05
241.119	12312.76
241.191	12372.19
241.262	12445.13
241.334	12451.83
241.405	12459.16
241.477	12464.27
241.549	12476.7
241.62	12506.11
241.692	12556.53
241.763	12618.09
241.835	12632.89
241.906	12654.58
241.978	12630.77
242.049	12714.02
242.121	12789.31
242.192	12876.32
242.264	12835.3
242.335	12788.2
242.407	12839.73
242.478	12857.37
242.55	12877.81
242.621	12857.61
242.693	12857.76
242.764	12849.42
242.836	12859.64
242.907	12896.47
242.979	12942.5
243.05	12967.62
243.122	12999.77
243.193	13000.45
243.264	12922.07
243.336	12933.92
243.407	12977.74
243.479	13066.92
243.55	13087.46
243.622	13098.88
243.693	13101.2
243.764	13181.99
243.836	13156.25
243.907	13148.88
243.978	13156.25
244.05	13182.43
244.121	13127.67
244.192	13173.37
244.264	13122.75
244.335	13141.02
244.407	13086.55
244.478	13100.62
244.549	13095.75
244.62	13049.72
244.692	13051.74
244.763	13109.4
244.834	13101.83
244.906	13076.9
244.977	13108.82
245.048	13167.82
245.119	13151
245.191	13124.87
245.262	13059.26
245.333	13151.67
245.405	13170.95
245.476	13212.26
245.547	13244.99
245.618	13314.51
245.689	13337.16
245.761	13381.22
245.832	13384.07
245.903	13435.12
245.974	13477.01
246.045	13487.23
246.117	13579.93
246.188	13570.14
246.259	13556.6
246.33	13577.91
246.401	13597.57
246.473	13559.11
246.544	13547.49
246.615	13616.57
246.686	13623.65
246.757	13711.1
246.828	13686.56
246.899	13770.54
246.97	13736.55
247.042	13724.6
247.113	13772.9
247.184	13872.77
247.255	13871.04
247.326	13911.05
247.397	13926.91
247.468	13933.8
247.539	13964.75
247.61	13921.46
247.681	13969.14
247.752	14031.52
247.823	14007.08
247.894	14025.64
247.965	13991.31
248.037	13971.69
248.108	13912.06
248.179	13931.68
248.25	13919.87
248.321	13955.79
248.392	13904.69
248.463	13989.24
248.534	13992.43
248.605	14021.54
248.675	13991.8
248.746	14019.13
248.817	14035.76
248.888	14057.51
248.959	13997.92
249.03	14026.8
249.101	14037.36
249.172	14025.5
249.243	13940.56
249.314	14017.98
249.385	14024.58
249.456	14062.52
249.527	14061.17
249.598	14097.61
249.669	14097.08
249.739	14118.1
249.81	14138.78
249.881	14092.89
249.952	14093.9
250.023	14088.84
250.094	14030.56
250.165	13999.08
250.235	13989.01
250.306	13995.18
250.377	13962.83
250.448	13995.9
250.519	13928.46
250.59	13993.68
250.66	13993.92
250.731	14080.07
250.802	14074.24
250.873	14099.59
250.944	14127.41
251.014	14123.26
251.085	14215.57
251.156	14243.67
251.227	14305.42
251.297	14363.99
251.368	14430.03
251.439	14475.83
251.51	14535.41
251.58	14522.15
251.651	14519.98
251.722	14586.5
251.792	14537.62
251.863	14549.96
251.934	14621.55
252.005	14741.24
252.075	14746.83
252.146	14813.5
252.217	14867.05
252.287	14920.61
252.358	14928.08
252.429	15003.85
252.499	14994.89
252.57	15002.21
252.641	15054.37
252.711	15063.33
252.782	15014.46
252.852	15097.07
252.923	15101.22
252.994	15115.1
253.064	15173.38
253.135	15148.36
253.205	15124.89
253.276	15209.25
253.347	15283.63
253.417	15260.1
253.488	15246.27
253.558	15244.24
253.629	15241.93
253.699	15255.81
253.77	15282.85
253.841	15287.53
253.911	15309.22
253.982	15335.78
254.052	15377.52
254.123	15390.68
254.193	15392.22
254.264	15545.49
254.334	15508.91
254.405	15481.04
254.475	15450.63
254.546	15458
254.616	15533.83
254.687	15573.93
254.757	15592.97
254.827	15594.27
254.898	15627.05
254.968	15635.92
255.039	15616.54
255.109	15649.99
255.18	15623.87
255.25	15549.78
255.321	15581.07
255.391	15535.52
255.461	15627.63
255.532	15541.26
255.602	15534.85
255.673	15481.2
255.743	15439.51
255.813	15372.41
255.884	15423.6
255.954	15470.5
256.024	15548.97
256.095	15558.27
256.165	15515.71
256.235	15540.48
256.306	15524.38
256.376	15573.64
256.446	15619.38
256.517	15667.35
256.587	15723.3
256.657	15754.49
256.728	15783.46
256.798	15794.79
256.868	15798.69
256.938	15769.97
257.009	15816.86
257.079	15857.21
257.149	15964.89
257.219	15903.72
257.29	15945.27
257.36	15882.71
257.43	15929.7
257.5	15859.33
257.571	15849.59
257.641	15896.11
257.711	15859
257.781	15898.33
257.852	15918.33
257.922	15853.07
257.992	15850.18
258.062	15843.81
258.132	15880.4
258.202	15890.47
258.273	15904.01
258.343	15978.72
258.413	15972.16
258.483	15981.71
258.553	15946.09
258.623	15917.17
258.693	15953.85
258.764	16030.1
258.834	16114.31
258.904	16136.48
258.974	16131.18
259.044	16141.92
259.114	16169.4
259.184	16204.44
259.254	16218.51
259.324	16162.17
259.394	16217.12
259.464	16309.8
259.535	16319.77
259.605	16321.65
259.675	16325.85
259.745	16370.77
259.815	16349.95
259.885	16346.38
259.955	16476.55
260.025	16474.62
260.095	16489.75
260.165	16516.45
260.235	16585.46
260.305	16563.44
260.375	16524.02
260.445	16623.64
260.515	16703.11
260.585	16760.8
260.655	16780.9
260.725	16829.14
260.795	16870.5
260.865	16945.54
260.934	16905.92
261.004	16937.25
261.074	16939.03
261.144	16992.77
261.214	17027.57
261.284	17025.06
261.354	17078.75
261.424	17022.56
261.494	17098.19
261.564	17106.48
261.634	17139.1
261.703	17059.2
261.773	17093.61
261.843	17126.38
261.913	17117.9
261.983	17052.5
262.053	17076.89
262.123	17067.44
262.192	17024.26
262.262	17077.03
262.332	17032.6
