Data from 20250701_urea_2M_exp3_MAYP1162681_16-09-48-779.txt Node
Date: Tue Jul 01 16:09:48 BST 2025
User: adleo
Spectrometer: MAYP116268
Trigger mode: 0
Integration Time (sec): 4.000000E0
Scans to average: 1
Electric dark correction enabled: true
Nonlinearity correction enabled: true
Boxcar width: 10
XAxis mode: Wavelengths
Number of Pixels in Spectrum: 2068
>>>>>Begin Spectral Data<<<<<
179.565	4155.49
179.642	4365.64
179.718	4530.66
179.795	4679.24
179.871	4811.64
179.948	4888.67
180.024	4971.94
180.101	5063.32
180.177	5123.54
180.254	5213.13
180.33	5299.38
180.407	5606.26
180.483	5929.4
180.56	6254.12
180.636	6550.82
180.712	6511.62
180.789	6549.94
180.865	6595.92
180.942	6635.38
181.018	6677.16
181.095	6726.76
181.171	6740.64
181.248	6746.93
181.324	6808.44
181.4	6842.5
181.477	6881.66
181.553	6924.53
181.63	7003.53
181.706	7061.78
181.782	7087.17
181.859	7085.35
181.935	7110.68
182.011	7100.59
182.088	7161.19
182.164	7239.66
182.24	7295.52
182.317	7328.81
182.393	7318.68
182.469	7368.13
182.546	7415.24
182.622	7429.22
182.698	7412.49
182.775	7458.97
182.851	7511.99
182.927	7483.58
183.003	7466.8
183.08	7439.6
183.156	7479.45
183.232	7470.22
183.308	7425.95
183.385	7463.48
183.461	7527.23
183.537	7524.97
183.613	7568.24
183.69	7538.23
183.766	7493.07
183.842	7522.02
183.918	7541.77
183.995	7591.81
184.071	7606.63
184.147	7583.74
184.223	7545.69
184.299	7591.33
184.375	7547.78
184.452	7566.49
184.528	7708.56
184.604	7747.44
184.68	7794.6
184.756	7823.12
184.832	7829.13
184.908	7853.74
184.985	7847.01
185.061	7787.58
185.137	7823.08
185.213	7778.85
185.289	7780.96
185.365	7757.41
185.441	7751.54
185.517	7804.46
185.593	7792.59
185.669	7782.68
185.745	7819.32
185.822	7880.93
185.898	7853.9
185.974	7890.77
186.05	7866.86
186.126	7781.92
186.202	7752.98
186.278	7740.86
186.354	7697.67
186.43	7726.25
186.506	7715.72
186.582	7717.98
186.658	7742.69
186.734	7668.8
186.81	7680.48
186.886	7692.93
186.962	7735.71
187.038	7717.73
187.114	7686.93
187.19	7713.72
187.266	7677.62
187.341	7684.31
187.417	7655.99
187.493	7653.44
187.569	7664.5
187.645	7648.87
187.721	7604.53
187.797	7637.32
187.873	7647.75
187.949	7631.84
188.025	7612.02
188.101	7628.84
188.176	7644.52
188.252	7630.48
188.328	7663.78
188.404	7666.23
188.48	7646.43
188.556	7621.91
188.632	7620.46
188.707	7625.13
188.783	7613.39
188.859	7596.39
188.935	7552.48
189.011	7578.34
189.086	7550.51
189.162	7518.78
189.238	7504.41
189.314	7496.62
189.39	7473.54
189.465	7450.08
189.541	7506.44
189.617	7447.98
189.693	7421.36
189.768	7430.69
189.844	7521.07
189.92	7483.69
189.996	7513.65
190.071	7559.86
190.147	7559.28
190.223	7598.04
190.298	7567.98
190.374	7523.13
190.45	7566.86
190.526	7599.61
190.601	7583.02
190.677	7595.75
190.753	7702.09
190.828	7716.8
190.904	7767.29
190.98	7824
191.055	7861.17
191.131	7833.95
191.207	7906.5
191.282	7943.22
191.358	7915.14
191.433	7856.72
191.509	7907.66
191.585	7892.41
191.66	7886.83
191.736	7913.38
191.811	7876.39
191.887	7937.35
191.963	8021.28
192.038	8039.6
192.114	8040.99
192.189	8057.82
192.265	8045.9
192.34	7965.77
192.416	7961.64
192.491	7954.95
192.567	7964.96
192.642	7981.61
192.718	7985.51
192.793	7942.51
192.869	7926.45
192.944	7933.61
193.02	7966.18
193.095	7976.91
193.171	7998.26
193.246	8002.64
193.322	7993.07
193.397	7995.09
193.473	7939.9
193.548	7871.98
193.624	7895.36
193.699	7889.39
193.775	7946.46
193.85	7945.36
193.925	7976.15
194.001	7971.15
194.076	7938.49
194.152	7895.86
194.227	7865.46
194.302	7826.18
194.378	7845.32
194.453	7837.78
194.529	7880.68
194.604	7824.65
194.679	7804.79
194.755	7736.43
194.83	7778.73
194.905	7766.81
194.981	7800.28
195.056	7775.76
195.131	7802.07
195.207	7792.63
195.282	7760.47
195.357	7689.31
195.433	7752.3
195.508	7705.94
195.583	7741.52
195.659	7797.46
195.734	7817.72
195.809	7811.32
195.884	7845.35
195.96	7845.74
196.035	7898.44
196.11	7877.95
196.185	7918.1
196.261	7933.34
196.336	8056.95
196.411	8001.81
196.486	8028.45
196.561	8006.23
196.637	8040.41
196.712	8100.76
196.787	8110.43
196.862	8168.58
196.937	8206.24
197.013	8223.18
197.088	8259.92
197.163	8337.13
197.238	8396.98
197.313	8409.01
197.388	8459.29
197.464	8561.52
197.539	8599.82
197.614	8577.06
197.689	8629.81
197.764	8692.29
197.839	8770.3
197.914	8739.83
197.989	8828.1
198.065	8873.29
198.14	9058.74
198.215	9160.32
198.29	9201.21
198.365	9250.99
198.44	9285.88
198.515	9386.43
198.59	9447.92
198.665	9550.72
198.74	9580.1
198.815	9581.64
198.89	9658.25
198.965	9768.7
199.04	9762.3
199.115	9820.46
199.19	9974.21
199.265	9980.95
199.34	10021.71
199.415	10138.21
199.49	10215.79
199.565	10249.12
199.64	10338.28
199.715	10325.56
199.79	10337.32
199.865	10363.28
199.94	10351.49
200.015	10474.73
200.09	10492.22
200.165	10515.01
200.24	10538.96
200.315	10679.88
200.39	10740.02
200.464	10760.06
200.539	10764.25
200.614	10824.33
200.689	10910.34
200.764	10936.08
200.839	11001.35
200.914	11016.04
200.989	10980.09
201.063	11031.65
201.138	10966.68
201.213	10964.8
201.288	10890.98
201.363	10912.71
201.438	10907.6
201.512	10976.63
201.587	10909.02
201.662	10927.43
201.737	10961.84
201.812	10986.75
201.886	10864.86
201.961	10898.64
202.036	10854.51
202.111	10845.02
202.186	10735.98
202.26	10671.93
202.335	10590.64
202.41	10571.47
202.485	10508.41
202.559	10432
202.634	10336.9
202.709	10371.71
202.784	10302.83
202.858	10303.36
202.933	10236.78
203.008	10210.77
203.082	10131.86
203.157	10121.65
203.232	9960.2
203.306	9881.76
203.381	9765.13
203.456	9684.7
203.53	9597.57
203.605	9528.78
203.68	9441.73
203.754	9416.33
203.829	9357.52
203.904	9285.88
203.978	9236.94
204.053	9254.71
204.127	9208.31
204.202	9202.58
204.277	9135.08
204.351	9112.02
204.426	9087.31
204.5	9056.88
204.575	8928.83
204.65	8969.09
204.724	8938.79
204.799	8971.22
204.873	8958.84
204.948	8951.81
205.022	8901.33
205.097	8872.63
205.171	8918.98
205.246	8954.61
205.32	8953.89
205.395	8952.35
205.469	8919.78
205.544	8942.9
205.618	8876.37
205.693	8922.2
205.767	8873.3
205.842	8956.35
205.916	8932.72
205.991	8892.91
206.065	8914.19
206.14	8970.36
206.214	8950.56
206.289	8919.26
206.363	8959.41
206.438	8968.99
206.512	8997.83
206.586	9071.28
206.661	9098.16
206.735	9020.59
206.81	9015.92
206.884	9069.01
206.958	9031.37
207.033	9095.03
207.107	9121.57
207.181	9238.98
207.256	9213.51
207.33	9284.22
207.405	9325.9
207.479	9401.45
207.553	9429.8
207.628	9367
207.702	9411.52
207.776	9386.24
207.851	9404.63
207.925	9461.18
207.999	9454.06
208.073	9443.17
208.148	9452.04
208.222	9406.38
208.296	9517.08
208.371	9573.88
208.445	9617.32
208.519	9719.93
208.593	9760.19
208.668	9744.2
208.742	9749.94
208.816	9759.9
208.89	9813.57
208.965	9804.27
209.039	9832.69
209.113	9902.2
209.187	9983.97
209.261	9972.99
209.336	10045.48
209.41	10120.49
209.484	10123.23
209.558	10205.13
209.632	10252.96
209.707	10292.7
209.781	10377.14
209.855	10441.9
209.929	10507.64
210.003	10525.51
210.077	10518.67
210.151	10695.07
210.226	10820.61
210.3	10923.42
210.374	11010.37
210.448	11028.06
210.522	11067.67
210.596	11103.38
210.67	11133.4
210.744	11302.84
210.818	11423.53
210.892	11502.85
210.966	11488.16
211.041	11547.53
211.115	11533.07
211.189	11620.25
211.263	11682.23
211.337	11702.81
211.411	11761.46
211.485	11739.05
211.559	11784.64
211.633	11795.58
211.707	11684.71
211.781	11710.4
211.855	11578.01
211.929	11545.58
212.003	11470.47
212.077	11506.57
212.151	11547.3
212.225	11575.59
212.299	11535.34
212.373	11488.01
212.447	11466.23
212.52	11568.59
212.594	11572.26
212.668	11607.63
212.742	11554.57
212.816	11533.79
212.89	11509.99
212.964	11487.09
213.038	11493.41
213.112	11531
213.186	11577.79
213.26	11483.8
213.333	11312.44
213.407	11322.36
213.481	11323.09
213.555	11355.36
213.629	11299.59
213.703	11231.69
213.777	11222.53
213.85	11141.03
213.924	11251.6
213.998	11240.66
214.072	11200.41
214.146	11143.15
214.219	11122.04
214.293	11094.72
214.367	11084.26
214.441	11111.49
214.515	11058.48
214.588	10961.95
214.662	10817.4
214.736	10728.46
214.81	10747.48
214.883	10768.09
214.957	10712.36
215.031	10653.03
215.105	10557.45
215.178	10488.36
215.252	10440.95
215.326	10323.93
215.4	10230.5
215.473	10028.18
215.547	9933.22
215.621	9854.72
215.694	9841.42
215.768	9731.45
215.842	9661.72
215.915	9579.48
215.989	9447.69
216.063	9384.05
216.136	9354.82
216.21	9323.38
216.284	9328.59
216.357	9297.57
216.431	9243.93
216.504	9240.95
216.578	9297.3
216.652	9307.55
216.725	9283.23
216.799	9289.25
216.873	9274.71
216.946	9280.82
217.02	9239.59
217.093	9210.02
217.167	9105.31
217.24	9020.61
217.314	8980.14
217.387	8926.49
217.461	8878.79
217.535	8903.82
217.608	8832.15
217.682	8804.13
217.755	8827.14
217.829	8764.79
217.902	8747.9
217.976	8723.79
218.049	8677
218.123	8593.74
218.196	8594.56
218.27	8551.48
218.343	8477.53
218.417	8472.24
218.49	8449.76
218.563	8501.78
218.637	8512.18
218.71	8591.17
218.784	8613.65
218.857	8651.66
218.931	8673.69
219.004	8684.66
219.077	8708.78
219.151	8738.04
219.224	8728.41
219.298	8719.46
219.371	8772.75
219.444	8727.81
219.518	8744.9
219.591	8759.24
219.665	8870.49
219.738	8882.81
219.811	8867.17
219.885	8917.14
219.958	8952.19
220.031	8954.69
220.105	8973.61
220.178	8975.16
220.251	8947.23
220.325	8982.77
220.398	9005.78
220.471	9031.14
220.544	9068.98
220.618	9040.33
220.691	9068.78
220.764	9090.49
220.838	9121.2
220.911	9098
220.984	9199.51
221.057	9240.24
221.131	9267.68
221.204	9168.65
221.277	9247.1
221.35	9382.07
221.424	9379.37
221.497	9385.54
221.57	9414.03
221.643	9454.01
221.716	9505.88
221.79	9511.13
221.863	9521.34
221.936	9527.55
222.009	9547.19
222.082	9586.88
222.155	9601.18
222.229	9668.42
222.302	9697.99
222.375	9700.78
222.448	9747.79
222.521	9745.76
222.594	9744.71
222.667	9712.6
222.74	9771.73
222.814	9761.18
222.887	9741.09
222.96	9793.26
223.033	9844.95
223.106	9868.2
223.179	9900.82
223.252	9913.93
223.325	9951.49
223.398	9969.99
223.471	10004.43
223.544	10026.72
223.617	10035.78
223.69	10061.11
223.763	10024.88
223.837	10052.2
223.91	10089.1
223.983	10042
224.056	10008.96
224.129	10042.77
224.202	10110.08
224.275	10099.15
224.348	10065.19
224.42	10028.24
224.493	9966.97
224.566	9939.75
224.639	9972.84
224.712	9940.75
224.785	9930.54
224.858	9917.58
224.931	9896.19
225.004	9853.28
225.077	9854.53
225.15	9757.17
225.223	9756.68
225.296	9849.69
225.369	9790.83
225.442	9757.26
225.514	9779.79
225.587	9799.01
225.66	9802.28
225.733	9801.17
225.806	9814.42
225.879	9812.21
225.952	9785.82
226.025	9837.93
226.097	9896.43
226.17	9884.24
226.243	9814.9
226.316	9809.45
226.389	9823.71
226.461	9846.06
226.534	9871.83
226.607	9861.23
226.68	9953.44
226.753	9942.41
226.825	9845.89
226.898	9910
226.971	9914.33
227.044	9937.6
227.117	9952.77
227.189	9970.11
227.262	10013.14
227.335	10030.72
227.407	10026.77
227.48	10062.75
227.553	10078.79
227.626	10057.97
227.698	10059.66
227.771	10109.25
227.844	10083.29
227.916	10098.75
227.989	10060.6
228.062	10058.82
228.134	10157.15
228.207	10168.19
228.28	10166.36
228.352	10179.36
228.425	10186.45
228.498	10243.58
228.57	10222.54
228.643	10288.88
228.716	10295.63
228.788	10277.8
228.861	10278.96
228.934	10350.83
229.006	10360.56
229.079	10364.03
229.151	10356.9
229.224	10332.29
229.296	10359.22
229.369	10472.55
229.442	10530.19
229.514	10514.05
229.587	10566.52
229.659	10484.46
229.732	10494.67
229.804	10548.05
229.877	10643.66
229.949	10678.5
230.022	10732.29
230.094	10737.68
230.167	10729.88
230.239	10676.5
230.312	10667.97
230.384	10742.86
230.457	10739.06
230.529	10747.49
230.602	10754.67
230.674	10769.46
230.747	10811.85
230.819	10851.56
230.892	10728.11
230.964	10728.11
231.037	10761.1
231.109	10751.03
231.181	10800.84
231.254	10759.27
231.326	10742.5
231.399	10710.83
231.471	10681.15
231.544	10597.05
231.616	10646
231.688	10648.5
231.761	10652.93
231.833	10650.04
231.905	10554.87
231.978	10557.42
232.05	10547.69
232.122	10543.79
232.195	10515.36
232.267	10560.94
232.339	10535.4
232.412	10617.06
232.484	10591.04
232.556	10560.45
232.629	10639.59
232.701	10660.17
232.773	10678.67
232.846	10673.51
232.918	10692.31
232.99	10720.31
233.062	10769.7
233.135	10789.07
233.207	10749.41
233.279	10797.64
233.351	10836.62
233.424	10850.64
233.496	10823.51
233.568	10916.37
233.64	10890.35
233.713	10908.37
233.785	10900.42
233.857	10917.96
233.929	10861.25
234.001	10928.78
234.074	11011.97
234.146	10932.89
234.218	10927.68
234.29	10930.81
234.362	10917.76
234.434	10864.55
234.507	10822.68
234.579	10764.85
234.651	10743.51
234.723	10785.43
234.795	10804.71
234.867	10793.14
234.939	10852.32
235.012	10882.72
235.084	10888.12
235.156	10930.81
235.228	10918.76
235.3	10898.72
235.372	10917.22
235.444	10980.2
235.516	10900.05
235.588	10908.05
235.66	10932.62
235.732	10911.33
235.804	11127.46
235.876	11179.64
235.948	11248.51
236.02	11270.48
236.092	11291.87
236.164	11311.34
236.236	11311.97
236.308	11311.34
236.38	11349.65
236.452	11333.8
236.524	11347.58
236.596	11416.18
236.668	11448.95
236.74	11474.63
236.812	11518.63
236.884	11563.03
236.956	11583.94
237.028	11585.34
237.1	11572.52
237.172	11651.14
237.244	11730.9
237.316	11611.5
237.388	11593.28
237.46	11571.11
237.532	11643.84
237.604	11640.56
237.675	11720.09
237.747	11768.48
237.819	11753.59
237.891	11764.87
237.963	11764.87
238.035	11773.02
238.107	11659.98
238.178	11741.3
238.25	11750.85
238.322	11853.91
238.394	11796.93
238.466	11798.72
238.538	11848.31
238.609	11895.2
238.681	11835.1
238.753	11814.51
238.825	11834.57
238.897	11881.03
238.968	11976.66
239.04	11954.25
239.112	12082.12
239.184	12045.34
239.255	12050.79
239.327	12100.52
239.399	12124.87
239.471	12178.42
239.542	12216.83
239.614	12295.93
239.686	12202.08
239.758	12262.04
239.829	12222.94
239.901	12308.84
239.973	12333.66
240.044	12371.55
240.116	12387.02
240.188	12417.58
240.259	12443.61
240.331	12441.54
240.403	12486.41
240.474	12443.03
240.546	12442.54
240.618	12375.97
240.689	12375.49
240.761	12405.33
240.833	12480.92
240.904	12486.75
240.976	12486.32
241.048	12509.89
241.119	12553.51
241.191	12606.05
241.262	12687.76
241.334	12701.84
241.405	12698.66
241.477	12700.68
241.549	12716.01
241.62	12742.67
241.692	12790.63
241.763	12860.53
241.835	12892.44
241.906	12912.02
241.978	12875.04
242.049	12951.11
242.121	13024.77
242.192	13118.19
242.264	13084.16
242.335	13038.12
242.407	13087.63
242.478	13096.5
242.55	13126.1
242.621	13118.48
242.693	13125.85
242.764	13117.51
242.836	13121.23
242.907	13160.8
242.979	13200.77
243.05	13231.28
243.122	13270.81
243.193	13277.56
243.264	13198.69
243.336	13196.91
243.407	13240.2
243.479	13337.77
243.55	13361.92
243.622	13388.05
243.693	13376.82
243.764	13449.46
243.836	13424.83
243.907	13415.09
243.978	13425.36
244.05	13459.59
244.121	13402.37
244.192	13452.12
244.264	13401.6
244.335	13416.25
244.407	13370.65
244.478	13397.74
244.549	13387.62
244.62	13338.69
244.692	13336.28
244.763	13392.05
244.834	13385.2
244.906	13359.37
244.977	13383.47
245.048	13437.94
245.119	13408.92
245.191	13387.9
245.262	13326.78
245.333	13420
245.405	13442.28
245.476	13489.13
245.547	13506.2
245.618	13579.47
245.689	13598.18
245.761	13638.86
245.832	13658.1
245.903	13706.11
245.974	13734.7
246.045	13756.92
246.117	13849.76
246.188	13838.97
246.259	13828.07
246.33	13849.57
246.401	13873.34
246.473	13842.44
246.544	13843.02
246.615	13915.37
246.686	13929.45
246.757	14017.67
246.828	13997.47
246.899	14084.57
246.97	14048.08
247.042	14041.33
247.113	14093.49
247.184	14190.81
247.255	14196.88
247.326	14229.08
247.397	14240.7
247.468	14259.36
247.539	14277.82
247.61	14233.52
247.681	14285.92
247.752	14356.88
247.823	14340.92
247.894	14357.94
247.965	14329.4
248.037	14311.08
248.108	14253.67
248.179	14268.66
248.25	14263.07
248.321	14295.13
248.392	14247.31
248.463	14341.7
248.534	14340.49
248.605	14360.3
248.675	14339.87
248.746	14364.55
248.817	14381.03
248.888	14406.63
248.959	14347.53
249.03	14378.48
249.101	14391.35
249.172	14382.63
249.243	14297.59
249.314	14365.61
249.385	14372.16
249.456	14408.56
249.527	14399.59
249.598	14436.33
249.669	14431.8
249.739	14443.03
249.81	14459.75
249.881	14411.21
249.952	14404.17
250.023	14406.15
250.094	14353.03
250.165	14317.84
250.235	14319.19
250.306	14323.72
250.377	14300.68
250.448	14326.62
250.519	14254.98
250.59	14329.36
250.66	14331.96
250.731	14417.1
250.802	14418.4
250.873	14447.37
250.944	14474.31
251.014	14473.21
251.085	14574.09
251.156	14610.29
251.227	14670.31
251.297	14734.46
251.368	14803.01
251.439	14852.66
251.51	14911.03
251.58	14887.51
251.651	14885.53
251.722	14940.92
251.792	14890.25
251.863	14888.66
251.934	14969.89
252.005	15104.76
252.075	15116.28
252.146	15169.21
252.217	15222.47
252.287	15278.48
252.358	15284.07
252.429	15369.82
252.499	15371.37
252.57	15380.14
252.641	15435.09
252.711	15442.37
252.782	15388.04
252.852	15475.24
252.923	15478.42
252.994	15497.94
253.064	15571.93
253.135	15552.7
253.205	15533.23
253.276	15621.97
253.347	15694.8
253.417	15669.21
253.488	15644.87
253.558	15629.88
253.629	15631.13
253.699	15650.02
253.77	15679.57
253.841	15674.75
253.911	15679.67
253.982	15700.01
254.052	15731.29
254.123	15739.24
254.193	15756.88
254.264	15920.8
254.334	15883.35
254.405	15850.43
254.475	15817.75
254.546	15822.71
254.616	15898.92
254.687	15934.3
254.757	15960.23
254.827	15972.61
254.898	16004.57
254.968	16013.73
255.039	15994.88
255.109	16039.71
255.18	16006.21
255.25	15922.78
255.321	15968.52
255.391	15928.47
255.461	16017.64
255.532	15937.29
255.602	15928.71
255.673	15860.6
255.743	15815.26
255.813	15733.89
255.884	15786.28
255.954	15827.5
256.024	15897.67
256.095	15897.77
256.165	15868.51
256.235	15896.08
256.306	15879.21
256.376	15931.07
256.446	15983.89
256.517	16032.67
256.587	16084.43
256.657	16116.15
256.728	16152.45
256.798	16161.41
256.868	16165.12
256.938	16135.87
257.009	16184.79
257.079	16230.82
257.149	16343.94
257.219	16279.93
257.29	16338.65
257.36	16285.1
257.43	16337.97
257.5	16274.63
257.571	16268.22
257.641	16311.8
257.711	16272.61
257.781	16314.16
257.852	16336.57
257.922	16270.01
257.992	16276.95
258.062	16266.59
258.132	16318.01
258.202	16325.39
258.273	16346.79
258.343	16430.21
258.413	16420.09
258.483	16432.86
258.553	16404.62
258.623	16385.92
258.693	16426.84
258.764	16496.1
258.834	16572.5
258.904	16590.38
258.974	16581.84
259.044	16594.95
259.114	16627.92
259.184	16661.32
259.254	16671.34
259.324	16613.08
259.394	16671.11
259.464	16754.96
259.535	16769.28
259.605	16762.1
259.675	16761.33
259.745	16800.94
259.815	16778.39
259.885	16782.44
259.955	16909.85
260.025	16904.5
260.095	16920.45
260.165	16960.31
260.235	17025.37
260.305	17014.29
260.375	16977.32
260.445	17086.77
260.515	17162.63
260.585	17208.85
260.655	17226.05
260.725	17272.8
260.795	17315.45
260.865	17396.42
260.934	17361.19
261.004	17394.92
261.074	17397.09
261.144	17462.69
261.214	17496.28
261.284	17501.39
261.354	17559.17
261.424	17504.77
261.494	17581.2
261.564	17588.67
261.634	17615.66
261.703	17552.19
261.773	17581.06
261.843	17616.72
261.913	17598.41
261.983	17538.56
262.053	17561.59
262.123	17555.62
262.192	17512.39
