Data from 20250701_urea_2M_exp3_MAYP1162681_23-29-50-638.txt Node
Date: Tue Jul 01 23:29:50 BST 2025
User: adleo
Spectrometer: MAYP116268
Trigger mode: 0
Integration Time (sec): 4.000000E0
Scans to average: 1
Electric dark correction enabled: true
Nonlinearity correction enabled: true
Boxcar width: 10
XAxis mode: Wavelengths
Number of Pixels in Spectrum: 2068
>>>>>Begin Spectral Data<<<<<
179.565	3764.59
179.642	3959.9
179.718	4114.48
179.795	4242.22
179.871	4355.81
179.948	4417.2
180.024	4483.74
180.101	4563.42
180.177	4617.96
180.254	4700.09
180.33	4782.9
180.407	5055.57
180.483	5346.49
180.56	5642.64
180.636	5913.63
180.712	5873.16
180.789	5906.99
180.865	5947.79
180.942	5986.16
181.018	6020.03
181.095	6065.69
181.171	6083.59
181.248	6086.99
181.324	6141.54
181.4	6167.36
181.477	6206.43
181.553	6254.97
181.63	6331.34
181.706	6389.63
181.782	6412.36
181.859	6409.43
181.935	6421.44
182.011	6408.62
182.088	6464.89
182.164	6534.8
182.24	6580.24
182.317	6607.21
182.393	6606.25
182.469	6654.84
182.546	6694.46
182.622	6707.71
182.698	6692.68
182.775	6740.37
182.851	6786.71
182.927	6760.15
183.003	6747.81
183.08	6724.05
183.156	6753.73
183.232	6742.77
183.308	6701.13
183.385	6733.92
183.461	6791.75
183.537	6796.27
183.613	6839.93
183.69	6812.55
183.766	6773.28
183.842	6801.96
183.918	6821.6
183.995	6860.65
184.071	6875.07
184.147	6856.81
184.223	6821.63
184.299	6859.01
184.375	6818.43
184.452	6842.12
184.528	6970.48
184.604	7013.36
184.68	7058.85
184.756	7086.82
184.832	7104.31
184.908	7120.1
184.985	7115.25
185.061	7061.21
185.137	7091.53
185.213	7051.04
185.289	7059.64
185.365	7035.77
185.441	7026.11
185.517	7073.51
185.593	7062.84
185.669	7052.56
185.745	7091.38
185.822	7146.21
185.898	7118.82
185.974	7148.65
186.05	7124.42
186.126	7048.3
186.202	7023.89
186.278	7010.25
186.354	6973.01
186.43	6991.71
186.506	6988.34
186.582	6989.4
186.658	7010.62
186.734	6939.12
186.81	6946.08
186.886	6950.35
186.962	6997.14
187.038	6986.86
187.114	6958.78
187.19	6988.96
187.266	6957.5
187.341	6955.82
187.417	6930.36
187.493	6933.92
187.569	6947.03
187.645	6925.95
187.721	6887.74
187.797	6912.76
187.873	6928.57
187.949	6909.56
188.025	6888.17
188.101	6897.82
188.176	6911.84
188.252	6901.09
188.328	6936.03
188.404	6935.98
188.48	6915
188.556	6890.73
188.632	6888.76
188.707	6895.06
188.783	6876.31
188.859	6858.6
188.935	6822.13
189.011	6852.97
189.086	6830.69
189.162	6801.19
189.238	6791.78
189.314	6779.05
189.39	6763.24
189.465	6736.77
189.541	6792.88
189.617	6744.43
189.693	6722.77
189.768	6739.88
189.844	6825.05
189.92	6791.74
189.996	6826.14
190.071	6871.77
190.147	6861.83
190.223	6893.59
190.298	6862.5
190.374	6825.47
190.45	6862.92
190.526	6889.68
190.601	6866.9
190.677	6869.21
190.753	6963.45
190.828	6975.84
190.904	7027.59
190.98	7076.56
191.055	7114.19
191.131	7087.37
191.207	7154.62
191.282	7193.67
191.358	7156.15
191.433	7100.61
191.509	7149.24
191.585	7136.22
191.66	7136.65
191.736	7162.93
191.811	7134.2
191.887	7189.96
191.963	7269.11
192.038	7287.08
192.114	7293.57
192.189	7307.54
192.265	7301.21
192.34	7224.89
192.416	7223.16
192.491	7212.87
192.567	7214.79
192.642	7222.63
192.718	7223.59
192.793	7182.36
192.869	7164.2
192.944	7172.8
193.02	7199.28
193.095	7210.72
193.171	7228.11
193.246	7225.33
193.322	7215.86
193.397	7219.94
193.473	7170.43
193.548	7103.66
193.624	7124.43
193.699	7117.27
193.775	7169.96
193.85	7178.84
193.925	7211
194.001	7203.94
194.076	7180.44
194.152	7148.18
194.227	7118.14
194.302	7085.54
194.378	7100.57
194.453	7092.17
194.529	7138.06
194.604	7090.2
194.679	7068.34
194.755	7007.16
194.83	7049.18
194.905	7042.07
194.981	7072.59
195.056	7052.47
195.131	7077.64
195.207	7074.13
195.282	7041.51
195.357	6978.34
195.433	7021.78
195.508	6978.57
195.583	7009.17
195.659	7052.24
195.734	7073.15
195.809	7070.56
195.884	7100.04
195.96	7104.85
196.035	7161.74
196.11	7143.72
196.185	7183.55
196.261	7195.51
196.336	7305.37
196.411	7253.92
196.486	7274
196.561	7248.39
196.637	7279.85
196.712	7338.57
196.787	7353.48
196.862	7406.81
196.937	7439.25
197.013	7457.86
197.088	7492.17
197.163	7564.94
197.238	7624.95
197.313	7628.07
197.388	7678.02
197.464	7781.63
197.539	7818.41
197.614	7792.98
197.689	7835.34
197.764	7893.55
197.839	7963.76
197.914	7938.07
197.989	8013.43
198.065	8060.03
198.14	8230.93
198.215	8319.44
198.29	8354.05
198.365	8386.82
198.44	8427.13
198.515	8524.81
198.59	8579.81
198.665	8671.43
198.74	8700.56
198.815	8706.77
198.89	8780.53
198.965	8880
199.04	8864.49
199.115	8916.51
199.19	9056.07
199.265	9067.77
199.34	9103.63
199.415	9216.81
199.49	9292.41
199.565	9326.45
199.64	9410.66
199.715	9401.31
199.79	9418.98
199.865	9441.18
199.94	9442.53
200.015	9546.07
200.09	9562.68
200.165	9582.57
200.24	9601.54
200.315	9736.03
200.39	9779.47
200.464	9800.37
200.539	9807.64
200.614	9856.37
200.689	9931.89
200.764	9955.16
200.839	10014.53
200.914	10020.83
200.989	9983.45
201.063	10034.65
201.138	9972.95
201.213	9969.09
201.288	9901.52
201.363	9920.64
201.438	9916.5
201.512	9967.73
201.587	9908.81
201.662	9918.4
201.737	9964.79
201.812	9994.36
201.886	9876.11
201.961	9909.02
202.036	9869.64
202.111	9855.67
202.186	9763.1
202.26	9704.24
202.335	9631.41
202.41	9611.76
202.485	9560.2
202.559	9493.03
202.634	9399.7
202.709	9436.71
202.784	9375.65
202.858	9373.97
202.933	9311.57
203.008	9281.57
203.082	9211.72
203.157	9202.77
203.232	9061.53
203.306	8979.9
203.381	8868.29
203.456	8789.06
203.53	8711.08
203.605	8641.52
203.68	8562.9
203.754	8543.52
203.829	8494.95
203.904	8427.2
203.978	8381.04
204.053	8392.4
204.127	8350.83
204.202	8344.87
204.277	8279.73
204.351	8254.66
204.426	8229.78
204.5	8206.63
204.575	8099.36
204.65	8137.95
204.724	8113.83
204.799	8140.9
204.873	8129.64
204.948	8125.88
205.022	8085.54
205.097	8051.99
205.171	8104.13
205.246	8133.1
205.32	8126.56
205.395	8121.7
205.469	8089.74
205.544	8113.51
205.618	8051.51
205.693	8092.16
205.767	8047.91
205.842	8123.01
205.916	8101.61
205.991	8067.65
206.065	8087.62
206.14	8137.93
206.214	8113.72
206.289	8088.5
206.363	8126.99
206.438	8137.77
206.512	8165.14
206.586	8233.34
206.661	8269.68
206.735	8189.54
206.81	8191.9
206.884	8241.96
206.958	8202.96
207.033	8268.54
207.107	8293.67
207.181	8405.37
207.256	8383.53
207.33	8446.74
207.405	8488.15
207.479	8554.94
207.553	8579.37
207.628	8515.7
207.702	8557.26
207.776	8540.66
207.851	8552.4
207.925	8601.27
207.999	8584.18
208.073	8573.74
208.148	8581.63
208.222	8541.97
208.296	8650.32
208.371	8702.72
208.445	8738.72
208.519	8832.6
208.593	8865.66
208.668	8849.2
208.742	8856.95
208.816	8867.49
208.89	8914.63
208.965	8908.18
209.039	8931.96
209.113	8998.01
209.187	9069.67
209.261	9052.39
209.336	9119.98
209.41	9187.33
209.484	9190.42
209.558	9272.51
209.632	9318.53
209.707	9357.77
209.781	9424.35
209.855	9480.99
209.929	9541.08
210.003	9564.05
210.077	9564.86
210.151	9728.4
210.226	9845.02
210.3	9935.13
210.374	10007.21
210.448	10018.91
210.522	10055.96
210.596	10093.77
210.67	10122.72
210.744	10276.92
210.818	10393.21
210.892	10466.15
210.966	10447.8
211.041	10498.05
211.115	10486.05
211.189	10566.75
211.263	10620.27
211.337	10644.74
211.411	10695.87
211.485	10670.56
211.559	10710.45
211.633	10715.12
211.707	10605.72
211.781	10628.23
211.855	10502.77
211.929	10471.95
212.003	10403.96
212.077	10429.21
212.151	10467.95
212.225	10488.43
212.299	10458.98
212.373	10412.88
212.447	10391.24
212.52	10488.37
212.594	10498.11
212.668	10528.02
212.742	10476.32
212.816	10457.34
212.89	10437.11
212.964	10423.28
213.038	10428.43
213.112	10461.83
213.186	10505.81
213.26	10430.49
213.333	10265.32
213.407	10285.93
213.481	10286.51
213.555	10324.78
213.629	10281.61
213.703	10211.7
213.777	10207.79
213.85	10128.63
213.924	10234.02
213.998	10226.5
214.072	10183.9
214.146	10130.37
214.219	10114.33
214.293	10088.61
214.367	10076.86
214.441	10088.56
214.515	10036.09
214.588	9943.37
214.662	9811.36
214.736	9727.66
214.81	9742.2
214.883	9768.57
214.957	9718.02
215.031	9664.93
215.105	9569.47
215.178	9504.65
215.252	9469.26
215.326	9362.69
215.4	9274.81
215.473	9092.08
215.547	9004.14
215.621	8938.82
215.694	8932.94
215.768	8832.18
215.842	8761.77
215.915	8694.36
215.989	8586.57
216.063	8527.1
216.136	8509.1
216.21	8490.34
216.284	8498.47
216.357	8464.5
216.431	8414.79
216.504	8404.73
216.578	8461.82
216.652	8472.01
216.725	8445.4
216.799	8447.61
216.873	8429.67
216.946	8436.45
217.02	8390.96
217.093	8355.36
217.167	8256.88
217.24	8173.09
217.314	8135.2
217.387	8090.68
217.461	8040.61
217.535	8060.14
217.608	7995.64
217.682	7966.48
217.755	7974.75
217.829	7917.79
217.902	7904.37
217.976	7886.19
218.049	7838.15
218.123	7762.59
218.196	7769.56
218.27	7734.26
218.343	7667.77
218.417	7661.37
218.49	7643.15
218.563	7690.26
218.637	7703.25
218.71	7775.21
218.784	7798.87
218.857	7834.93
218.931	7854.78
219.004	7867.86
219.077	7891.92
219.151	7913.37
219.224	7899.85
219.298	7895.33
219.371	7945.89
219.444	7911.71
219.518	7921.86
219.591	7946.09
219.665	8046.73
219.738	8054
219.811	8034.87
219.885	8075.22
219.958	8113.62
220.031	8108.62
220.105	8133.88
220.178	8135.85
220.251	8110.97
220.325	8133.83
220.398	8150.38
220.471	8172.88
220.544	8208.82
220.618	8182.11
220.691	8208.52
220.764	8231.18
220.838	8258.31
220.911	8240.17
220.984	8320.55
221.057	8356.72
221.131	8376.3
221.204	8282.15
221.277	8350.39
221.35	8478.43
221.424	8474.92
221.497	8483.49
221.57	8515.23
221.643	8545.75
221.716	8597.73
221.79	8599.75
221.863	8614.15
221.936	8623.14
222.009	8637.19
222.082	8665.59
222.155	8676.8
222.229	8745.41
222.302	8775.14
222.375	8783.52
222.448	8823.18
222.521	8831.8
222.594	8829.49
222.667	8799.71
222.74	8857.75
222.814	8855.87
222.887	8839.5
222.96	8892.31
223.033	8935.64
223.106	8959.79
223.179	8987.05
223.252	8996.11
223.325	9031.24
223.398	9042.02
223.471	9070.33
223.544	9099.97
223.617	9107.43
223.69	9129.28
223.763	9089.56
223.837	9111.13
223.91	9140.64
223.983	9090.11
224.056	9051.17
224.129	9080.34
224.202	9137.35
224.275	9123.1
224.348	9094.6
224.42	9058.49
224.493	8999.48
224.566	8971.93
224.639	8994.27
224.712	8965.23
224.785	8953.96
224.858	8940.63
224.931	8928.54
225.004	8893.93
225.077	8884.31
225.15	8799.66
225.223	8796.1
225.296	8880.1
225.369	8823.84
225.442	8784.6
225.514	8804.09
225.587	8826.47
225.66	8831.23
225.733	8834.6
225.806	8848.08
225.879	8838.02
225.952	8806.89
226.025	8854.44
226.097	8901.59
226.17	8890.76
226.243	8825.65
226.316	8817.95
226.389	8829.36
226.461	8848.67
226.534	8865.03
226.607	8856.85
226.68	8944.38
226.753	8940.48
226.825	8850.47
226.898	8904.95
226.971	8913.18
227.044	8933.92
227.117	8941
227.189	8954.77
227.262	8984.04
227.335	9000.61
227.407	8997
227.48	9030.63
227.553	9050.81
227.626	9038.82
227.698	9040.45
227.771	9086.11
227.844	9068.88
227.916	9079.71
227.989	9036.58
228.062	9032.34
228.134	9124.56
228.207	9120.08
228.28	9113.82
228.352	9125.42
228.425	9134.28
228.498	9178.24
228.57	9155.57
228.643	9214.18
228.716	9211.24
228.788	9198.91
228.861	9187.12
228.934	9245.85
229.006	9250.86
229.079	9246.09
229.151	9232.41
229.224	9203.44
229.296	9221.97
229.369	9320.85
229.442	9373.21
229.514	9358.72
229.587	9401.04
229.659	9322.88
229.732	9331.16
229.804	9371.27
229.877	9452.96
229.949	9491.2
230.022	9539.43
230.094	9541.21
230.167	9531.53
230.239	9489.5
230.312	9482.47
230.384	9557.04
230.457	9558.43
230.529	9571.53
230.602	9572.83
230.674	9578.17
230.747	9620.38
230.819	9652.6
230.892	9532.79
230.964	9533.36
231.037	9564.69
231.109	9560.5
231.181	9602.49
231.254	9573.41
231.326	9560.5
231.399	9530.63
231.471	9498.36
231.544	9422.11
231.616	9474.73
231.688	9477.09
231.761	9469.15
231.833	9460.34
231.905	9373.88
231.978	9370.8
232.05	9354.04
232.122	9355.25
232.195	9331.12
232.267	9369.31
232.339	9347.93
232.412	9412.68
232.484	9385.36
232.556	9360.19
232.629	9427.83
232.701	9446.08
232.773	9455.09
232.846	9446.18
232.918	9456.54
232.99	9471.42
233.062	9517.08
233.135	9528.15
233.207	9494.83
233.279	9541.66
233.351	9574.84
233.424	9578.5
233.496	9553.51
233.568	9637.6
233.64	9598.16
233.713	9614.82
233.785	9617.04
233.857	9633.66
233.929	9584.26
234.001	9654.36
234.074	9724.27
234.146	9649.74
234.218	9642.95
234.29	9650.03
234.362	9638.04
234.434	9597.77
234.507	9564.5
234.579	9513.06
234.651	9488.36
234.723	9519.33
234.795	9538.01
234.867	9530.26
234.939	9587.86
235.012	9604.71
235.084	9610.83
235.156	9647.95
235.228	9635.53
235.3	9611.16
235.372	9623.68
235.444	9689.89
235.516	9604.47
235.588	9607.27
235.66	9629.18
235.732	9607.84
235.804	9799.54
235.876	9846.29
235.948	9907.33
236.02	9924.47
236.092	9941.23
236.164	9953.41
236.236	9950.71
236.308	9953.94
236.38	9983.9
236.452	9964.39
236.524	9984.81
236.596	10048.43
236.668	10089.52
236.74	10109.55
236.812	10143.94
236.884	10174.68
236.956	10179.93
237.028	10174.88
237.1	10156.43
237.172	10224.07
237.244	10300.72
237.316	10181.09
237.388	10164.95
237.46	10132.87
237.532	10192.46
237.604	10180.51
237.675	10256.64
237.747	10305.92
237.819	10295.42
237.891	10301.3
237.963	10297.02
238.035	10298.75
238.107	10180.41
238.178	10245.32
238.25	10252.93
238.322	10341.46
238.394	10298.63
238.466	10305.13
238.538	10352.72
238.609	10391.79
238.681	10337.77
238.753	10313.2
238.825	10333.34
238.897	10363.64
238.968	10458.91
239.04	10438.77
239.112	10551.45
239.184	10515.07
239.255	10505.91
239.327	10540.11
239.399	10562.71
239.471	10610.74
239.542	10639.99
239.614	10716.49
239.686	10624.26
239.758	10681.31
239.829	10646.51
239.901	10717.63
239.973	10735.16
240.044	10767.35
240.116	10782.38
240.188	10797.51
240.259	10816.64
240.331	10813.89
240.403	10852.92
240.474	10801.59
240.546	10796.1
240.618	10733.21
240.689	10733.07
240.761	10756.83
240.833	10817.5
240.904	10814.8
240.976	10811.38
241.048	10831.71
241.119	10863.47
241.191	10919.99
241.262	10985.49
241.334	10993.49
241.405	10983.85
241.477	10981.59
241.549	10992.53
241.62	11021.49
241.692	11067.12
241.763	11126.94
241.835	11142.65
241.906	11158.6
241.978	11128
242.049	11199.03
242.121	11267.84
242.192	11338.06
242.264	11305.87
242.335	11265.39
242.407	11313.05
242.478	11319.27
242.55	11347.61
242.621	11334.59
242.693	11326.59
242.764	11317.77
242.836	11318.83
242.907	11355.94
242.979	11389.1
243.05	11407.7
243.122	11430.02
243.193	11435.51
243.264	11363.99
243.336	11368.71
243.407	11400.67
243.479	11480.71
243.55	11493.87
243.622	11507.42
243.693	11500.09
243.764	11570.89
243.836	11536.53
243.907	11522.65
243.978	11528.44
244.05	11547.76
244.121	11502.51
244.192	11551.62
244.264	11502.56
244.335	11506.41
244.407	11459.95
244.478	11477.21
244.549	11471.23
244.62	11421.45
244.692	11419.62
244.763	11462.17
244.834	11448.58
244.906	11430.84
244.977	11453.69
245.048	11506.23
245.119	11482.61
245.191	11465.02
245.262	11397.79
245.333	11483.04
245.405	11503.71
245.476	11538.27
245.547	11552.87
245.618	11605.6
245.689	11617.12
245.761	11653.6
245.832	11665.41
245.903	11712.35
245.974	11741.76
246.045	11762.96
246.117	11852.51
246.188	11833.57
246.259	11817.09
246.33	11837.53
246.401	11845.62
246.473	11807.26
246.544	11792.31
246.615	11852.52
246.686	11853.14
246.757	11937.29
246.828	11913.1
246.899	11985.11
246.97	11953.64
247.042	11947.42
247.113	11988.01
247.184	12079.17
247.255	12073.48
247.326	12099.51
247.397	12099.17
247.468	12112.43
247.539	12119.85
247.61	12078.06
247.681	12123.65
247.752	12176.14
247.823	12155.27
247.894	12172.29
247.965	12146.41
248.037	12135.95
248.108	12075.45
248.179	12085.86
248.25	12071.45
248.321	12099.21
248.392	12046.09
248.463	12125.76
248.534	12121.23
248.605	12157.34
248.675	12125.62
248.746	12141.62
248.817	12160.9
248.888	12189.44
248.959	12135.55
249.03	12159.22
249.101	12164.28
249.172	12151.22
249.243	12081.57
249.314	12145.49
249.385	12149.92
249.456	12181.64
249.527	12167.27
249.598	12200.58
249.669	12205.73
249.739	12220.72
249.81	12242.85
249.881	12206.41
249.952	12199.95
250.023	12198.17
250.094	12133.48
250.165	12100.17
250.235	12096.12
250.306	12099.68
250.377	12065.32
250.448	12082.04
250.519	12021.02
250.59	12083.06
250.66	12078.91
250.731	12153.96
250.802	12144.36
250.873	12168.66
250.944	12189.96
251.014	12187.99
251.085	12278.86
251.156	12300.45
251.227	12347.88
251.297	12400.52
251.368	12451.91
251.439	12492.59
251.51	12546.77
251.58	12533.91
251.651	12533.33
251.722	12594.5
251.792	12540.37
251.863	12546.83
251.934	12615.47
252.005	12730.96
252.075	12738.39
252.146	12787.99
252.217	12835.04
252.287	12888.45
252.358	12889.56
252.429	12966.4
252.499	12960.95
252.57	12968.66
252.641	13016.14
252.711	13020.82
252.782	12969.92
252.852	13050.85
252.923	13055.19
252.994	13068.74
253.064	13122.68
253.135	13103.97
253.205	13082.09
253.276	13160.71
253.347	13217.88
253.417	13196.09
253.488	13171.79
253.558	13156.32
253.629	13157.96
253.699	13169.96
253.77	13194.45
253.841	13193.92
253.911	13208.29
253.982	13225.74
254.052	13253.07
254.123	13264.88
254.193	13271.19
254.264	13410.89
254.334	13373.34
254.405	13339.11
254.475	13300.31
254.546	13307.83
254.616	13364.9
254.687	13397.3
254.757	13428.87
254.827	13433.69
254.898	13458.47
254.968	13465.51
255.039	13448.3
255.109	13487.35
255.18	13461.85
255.25	13388.77
255.321	13424.29
255.391	13373.15
255.461	13460.01
255.532	13376.71
255.602	13368.42
255.673	13318.96
255.743	13283.24
255.813	13211.95
255.884	13257.75
255.954	13303.35
256.024	13366.5
256.095	13369.58
256.165	13330.44
256.235	13343.99
256.306	13328.37
256.376	13372.48
256.446	13413.16
256.517	13448.5
256.587	13490.24
256.657	13508.37
256.728	13535.7
256.798	13541.92
256.868	13544.04
256.938	13508.08
257.009	13557.54
257.079	13584.34
257.149	13676.51
257.219	13612.45
257.29	13659.59
257.36	13605.6
257.43	13651.11
257.5	13582.89
257.571	13574.51
257.641	13610.66
257.711	13571.13
257.781	13602.32
257.852	13620.5
257.922	13557.83
257.992	13568.38
258.062	13563.23
258.132	13608.44
258.202	13609.99
258.273	13621.7
258.343	13695.41
258.413	13687.5
258.483	13688.03
258.553	13660.17
258.623	13636.5
258.693	13673.76
258.764	13739.71
258.834	13815.15
258.904	13822.09
258.974	13817.51
259.044	13831.11
259.114	13860.03
259.184	13898.55
259.254	13912.34
259.324	13862.93
259.394	13910.84
259.464	13978.62
259.535	13982.09
259.605	13971.87
259.675	13968.21
259.745	14000.02
259.815	13974.86
259.885	13977.99
259.955	14097.87
260.025	14091.99
260.095	14109.49
260.165	14134.12
260.235	14195.44
260.305	14174.03
260.375	14135.9
260.445	14226.43
260.515	14290.21
260.585	14333.3
260.655	14335.67
260.725	14379.29
260.795	14413.08
260.865	14485.73
260.934	14459.6
261.004	14487.32
261.074	14492.33
261.144	14549.46
261.214	14592.79
261.284	14588.98
261.354	14625.67
261.424	14580.17
261.494	14643.56
261.564	14640.76
261.634	14670.65
261.703	14601
261.773	14624.57
261.843	14668.53
261.913	14659.23
261.983	14602.83
262.053	14629.34
262.123	14627.27
262.192	14585.14
262.262	14624.13
262.332	14585.04
262.402	14626.69
262.472	14641.97
262.541	14586.92
262.611	14635.8
262.681	14604.51
262.751	14652.72
262.821	14656.38
262.89	14628.09
262.96	14659.56
263.03	14746.71
