Data from 20250701_urea_2M_exp3_MAYP1162681_06-49-52-501.txt Node
Date: Wed Jul 02 06:49:52 BST 2025
User: adleo
Spectrometer: MAYP116268
Trigger mode: 0
Integration Time (sec): 4.000000E0
Scans to average: 1
Electric dark correction enabled: true
Nonlinearity correction enabled: true
Boxcar width: 10
XAxis mode: Wavelengths
Number of Pixels in Spectrum: 2068
>>>>>Begin Spectral Data<<<<<
179.565	3728.88
179.642	3925.15
179.718	4085.27
179.795	4212.14
179.871	4327.34
179.948	4390.82
180.024	4459.74
180.101	4539.52
180.177	4594.9
180.254	4677.48
180.33	4757.42
180.407	5022.75
180.483	5312.19
180.56	5608.97
180.636	5878.27
180.712	5830.18
180.789	5866.78
180.865	5907.53
180.942	5942.59
181.018	5981.45
181.095	6029.98
181.171	6043.95
181.248	6047.88
181.324	6093.2
181.4	6122.14
181.477	6159.63
181.553	6203.56
181.63	6278.1
181.706	6333.41
181.782	6358.11
181.859	6355.38
181.935	6372.04
182.011	6362.97
182.088	6421.64
182.164	6490.25
182.24	6534.77
182.317	6570.24
182.393	6558.53
182.469	6606.49
182.546	6651.44
182.622	6663.82
182.698	6644.52
182.775	6689.18
182.851	6734.94
182.927	6710.45
183.003	6694.9
183.08	6672.28
183.156	6705.85
183.232	6695.47
183.308	6653.17
183.385	6682.16
183.461	6736.05
183.537	6741
183.613	6787.01
183.69	6751.51
183.766	6707.88
183.842	6733.62
183.918	6752.55
183.995	6803.26
184.071	6812.82
184.147	6796.44
184.223	6761.01
184.299	6809.01
184.375	6771.17
184.452	6795.39
184.528	6929.75
184.604	6967.16
184.68	7005.81
184.756	7033.35
184.832	7045.8
184.908	7063.03
184.985	7059
185.061	7009.57
185.137	7035.57
185.213	6992.77
185.289	7000.79
185.365	6980.57
185.441	6979.52
185.517	7023.98
185.593	7005.1
185.669	6999.19
185.745	7030.71
185.822	7083.71
185.898	7054.25
185.974	7090.37
186.05	7060.76
186.126	6981.03
186.202	6959.13
186.278	6951.06
186.354	6913.33
186.43	6933.76
186.506	6929.49
186.582	6928.91
186.658	6947.64
186.734	6882.04
186.81	6890.63
186.886	6902.54
186.962	6939.96
187.038	6923.48
187.114	6899.92
187.19	6934.09
187.266	6903.35
187.341	6907.34
187.417	6884.23
187.493	6884.43
187.569	6891.92
187.645	6878.47
187.721	6834.02
187.797	6860.58
187.873	6871.44
187.949	6849.5
188.025	6827.29
188.101	6836.9
188.176	6852.94
188.252	6841.46
188.328	6869.54
188.404	6872.71
188.48	6849.95
188.556	6832.75
188.632	6836.45
188.707	6838.9
188.783	6825.73
188.859	6805.29
188.935	6766.22
189.011	6793.55
189.086	6770.5
189.162	6739.37
189.238	6724.54
189.314	6719.88
189.39	6700.04
189.465	6678.37
189.541	6736.89
189.617	6690.83
189.693	6673.88
189.768	6690.03
189.844	6772.98
189.92	6747.35
189.996	6775.12
190.071	6822.38
190.147	6817.25
190.223	6841.99
190.298	6814.46
190.374	6766.38
190.45	6814.3
190.526	6844.81
190.601	6824.77
190.677	6829.57
190.753	6928.28
190.828	6943.31
190.904	6992.9
190.98	7048.83
191.055	7090.21
191.131	7063.77
191.207	7134.05
191.282	7168.77
191.358	7128.33
191.433	7078.75
191.509	7117.45
191.585	7106.3
191.66	7105.63
191.736	7137.29
191.811	7108.03
191.887	7162.97
191.963	7248.64
192.038	7260.13
192.114	7258.11
192.189	7272.18
192.265	7262.97
192.34	7180.64
192.416	7172.04
192.491	7161.32
192.567	7166.47
192.642	7167.57
192.718	7166.76
192.793	7125.43
192.869	7112.07
192.944	7133.44
193.02	7156.76
193.095	7171.94
193.171	7192.36
193.246	7189.09
193.322	7172.13
193.397	7175.64
193.473	7129.97
193.548	7063.93
193.624	7084.79
193.699	7080.8
193.775	7134.5
193.85	7134.41
193.925	7166.08
194.001	7169.54
194.076	7143.73
194.152	7107.2
194.227	7084.13
194.302	7052.24
194.378	7061.8
194.453	7053.78
194.529	7083.29
194.604	7034.28
194.679	7011.94
194.755	6952.24
194.83	6995.28
194.905	6991.39
194.981	7021.32
195.056	6995.48
195.131	7020.17
195.207	7015.51
195.282	6983.18
195.357	6919.97
195.433	6981.61
195.508	6946.09
195.583	6969.1
195.659	7013.99
195.734	7034.28
195.809	7032.5
195.884	7065.35
195.96	7069.38
196.035	7121.13
196.11	7112.48
196.185	7150.05
196.261	7166.48
196.336	7268.4
196.411	7219.88
196.486	7235.45
196.561	7211.38
196.637	7242.55
196.712	7296.55
196.787	7298.28
196.862	7356.85
196.937	7390.87
197.013	7402.27
197.088	7432.59
197.163	7507.91
197.238	7570.12
197.313	7570.27
197.388	7612.19
197.464	7709.87
197.539	7745.78
197.614	7722.9
197.689	7766.47
197.764	7824
197.839	7886.6
197.914	7864.47
197.989	7936.66
198.065	7984.32
198.14	8155.78
198.215	8242.22
198.29	8285.54
198.365	8334.46
198.44	8364.33
198.515	8459.23
198.59	8513.94
198.665	8600.88
198.74	8626.69
198.815	8625.63
198.89	8703.19
198.965	8806.93
199.04	8795.71
199.115	8853.12
199.19	8994.46
199.265	8999.94
199.34	9035.56
199.415	9156.73
199.49	9230.98
199.565	9264.73
199.64	9349.13
199.715	9342.72
199.79	9366.84
199.865	9386.29
199.94	9384.08
200.015	9489.78
200.09	9506.68
200.165	9526.18
200.24	9546.75
200.315	9676.06
200.39	9728.12
200.464	9747.48
200.539	9747.48
200.614	9801.94
200.689	9879.29
200.764	9903.48
200.839	9966.69
200.914	9981.09
200.989	9936.62
201.063	9979.77
201.138	9919.95
201.213	9916.53
201.288	9849.87
201.363	9865.09
201.438	9867.21
201.512	9914.54
201.587	9855.39
201.662	9867.09
201.737	9913.91
201.812	9936.45
201.886	9828.66
201.961	9862.68
202.036	9821.66
202.111	9814.63
202.186	9714.79
202.26	9656.17
202.335	9576.89
202.41	9557.39
202.485	9499.81
202.559	9435.96
202.634	9349.92
202.709	9384.47
202.784	9317.78
202.858	9315.42
202.933	9250.67
203.008	9218.51
203.082	9151.6
203.157	9149.09
203.232	9000.12
203.306	8918.2
203.381	8814.69
203.456	8740.32
203.53	8661.66
203.605	8593.7
203.68	8511.76
203.754	8484.06
203.829	8429.09
203.904	8362.46
203.978	8313.89
204.053	8331.61
204.127	8286.63
204.202	8281.24
204.277	8215.72
204.351	8191.85
204.426	8166.1
204.5	8141.23
204.575	8028.09
204.65	8069.62
204.724	8043.39
204.799	8072.13
204.873	8066.06
204.948	8065.39
205.022	8020.1
205.097	7987.03
205.171	8036.9
205.246	8065.1
205.32	8067.21
205.395	8068.03
205.469	8035.4
205.544	8057.34
205.618	7991.05
205.693	8032.33
205.767	7987.31
205.842	8065.54
205.916	8046.83
205.991	8012.83
206.065	8035.1
206.14	8087.19
206.214	8066.87
206.289	8045.46
206.363	8089.23
206.438	8096.31
206.512	8116.08
206.586	8186.44
206.661	8216.14
206.735	8144.41
206.81	8149.32
206.884	8197.31
206.958	8153.79
207.033	8215.14
207.107	8241.47
207.181	8353.26
207.256	8330.69
207.33	8398.37
207.405	8440.27
207.479	8503.39
207.553	8523.64
207.628	8463.49
207.702	8500.19
207.776	8476.37
207.851	8482.62
207.925	8533.03
207.999	8523.6
208.073	8517.73
208.148	8519.99
208.222	8480.81
208.296	8589.17
208.371	8642.19
208.445	8684.16
208.519	8783.71
208.593	8821.68
208.668	8810.85
208.742	8813.59
208.816	8823.17
208.89	8870.93
208.965	8860.38
209.039	8884.84
209.113	8947.13
209.187	9015.56
209.261	9001.22
209.336	9065.19
209.41	9136.98
209.484	9134.28
209.558	9203.8
209.632	9254.44
209.707	9300.81
209.781	9375.19
209.855	9422.53
209.929	9483.82
210.003	9499.47
210.077	9494.32
210.151	9661.12
210.226	9768.74
210.3	9862.9
210.374	9945.18
210.448	9960.54
210.522	10001.3
210.596	10036.7
210.67	10066.56
210.744	10224.47
210.818	10341.09
210.892	10414.17
210.966	10393.17
211.041	10444.91
211.115	10431.03
211.189	10504.02
211.263	10557.54
211.337	10580.23
211.411	10631.06
211.485	10609.38
211.559	10650.42
211.633	10657.3
211.707	10547.86
211.781	10576.53
211.855	10456.42
211.929	10428.25
212.003	10359.77
212.077	10382.66
212.151	10422.8
212.225	10453.15
212.299	10415.03
212.373	10371.96
212.447	10352.45
212.52	10450.01
212.594	10462.54
212.668	10501.08
212.742	10448.85
212.816	10425.87
212.89	10399.81
212.964	10383.66
213.038	10385.16
213.112	10424.38
213.186	10467.97
213.26	10386.84
213.333	10224.12
213.407	10235.72
213.481	10233.99
213.555	10266.15
213.629	10220.08
213.703	10159.43
213.777	10154.17
213.85	10075.6
213.924	10176.74
213.998	10172.6
214.072	10137.56
214.146	10078.64
214.219	10052.05
214.293	10032.69
214.367	10019.34
214.441	10043.62
214.515	10002
214.588	9905.81
214.662	9774.32
214.736	9689.71
214.81	9702.66
214.883	9723.4
214.957	9676.27
215.031	9620.87
215.105	9527.67
215.178	9464.93
215.252	9420.92
215.326	9315.27
215.4	9239.42
215.473	9057.85
215.547	8970.06
215.621	8896.12
215.694	8891.83
215.768	8794.21
215.842	8723.27
215.915	8652.59
215.989	8533.58
216.063	8466.61
216.136	8448.8
216.21	8428.74
216.284	8438.56
216.357	8415.65
216.431	8367.24
216.504	8361.47
216.578	8413.98
216.652	8426.24
216.725	8401.02
216.799	8410.31
216.873	8393.86
216.946	8397.08
217.02	8359.68
217.093	8324.6
217.167	8233.43
217.24	8150.7
217.314	8121.38
217.387	8072.73
217.461	8029.2
217.535	8051.32
217.608	7989.52
217.682	7958.25
217.755	7963.06
217.829	7902.4
217.902	7889.65
217.976	7874.84
218.049	7827.61
218.123	7752.11
218.196	7752.93
218.27	7715.27
218.343	7634.88
218.417	7622.23
218.49	7601.89
218.563	7643.72
218.637	7653.97
218.71	7720.2
218.784	7749.06
218.857	7778.73
218.931	7805.97
219.004	7812.27
219.077	7836.96
219.151	7859.17
219.224	7850.99
219.298	7846.28
219.371	7896.07
219.444	7853.62
219.518	7860.54
219.591	7876.41
219.665	7979.94
219.738	7987.92
219.811	7971.82
219.885	8026.74
219.958	8057.58
220.031	8059.17
220.105	8078.51
220.178	8082.02
220.251	8056.03
220.325	8072.2
220.398	8095.15
220.471	8117.13
220.544	8153.16
220.618	8124.67
220.691	8151.46
220.764	8170.94
220.838	8199.13
220.911	8184.94
220.984	8267.52
221.057	8305.19
221.131	8328.18
221.204	8228.54
221.277	8301.79
221.35	8426.41
221.424	8414.67
221.497	8432.62
221.57	8456.23
221.643	8493.88
221.716	8543.5
221.79	8550.43
221.863	8563.38
221.936	8562.37
222.009	8579.68
222.082	8610.63
222.155	8612.51
222.229	8672.54
222.302	8705.88
222.375	8712.38
222.448	8749.15
222.521	8752.71
222.594	8750.4
222.667	8725.63
222.74	8782.36
222.814	8776.54
222.887	8759.39
222.96	8810.32
223.033	8853.75
223.106	8881.17
223.179	8907.42
223.252	8920.52
223.325	8951.32
223.398	8969.13
223.471	9007.78
223.544	9032.57
223.617	9042.29
223.69	9070.78
223.763	9035.59
223.837	9056.14
223.91	9084.69
223.983	9036.57
224.056	9003.51
224.129	9025.07
224.202	9079.87
224.275	9072.02
224.348	9037.99
224.42	9000.97
224.493	8946.29
224.566	8912.78
224.639	8932.03
224.712	8902.46
224.785	8884.6
224.858	8872.18
224.931	8850.17
225.004	8806.52
225.077	8794.39
225.15	8711.29
225.223	8712.64
225.296	8798.46
225.369	8741.48
225.442	8703.93
225.514	8724.52
225.587	8746.37
225.66	8758.21
225.733	8763.36
225.806	8776.79
225.879	8773.23
225.952	8749.03
226.025	8801.11
226.097	8862.42
226.17	8849.56
226.243	8780.13
226.316	8775.75
226.389	8782.63
226.461	8802.13
226.534	8820.12
226.607	8815.02
226.68	8897.02
226.753	8891.05
226.825	8801.47
226.898	8861.73
226.971	8869.91
227.044	8890.46
227.117	8896.67
227.189	8914.58
227.262	8949.78
227.335	8960.47
227.407	8950.7
227.48	8978.66
227.553	8985.79
227.626	8961.17
227.698	8968.78
227.771	9013.57
227.844	8996.57
227.916	9015.16
227.989	8981.51
228.062	8977.95
228.134	9064.81
228.207	9063.13
228.28	9059.13
228.352	9077.28
228.425	9082.63
228.498	9130.1
228.57	9107.96
228.643	9172.78
228.716	9169.26
228.788	9150.1
228.861	9146.82
228.934	9217.93
229.006	9227.7
229.079	9233.14
229.151	9221.96
229.224	9191.26
229.296	9219.76
229.369	9321.19
229.442	9373.4
229.514	9354.44
229.587	9406.25
229.659	9329.82
229.732	9349.86
229.804	9394.68
229.877	9473.39
229.949	9506.67
230.022	9557.64
230.094	9558.31
230.167	9543.57
230.239	9499.04
230.312	9497.79
230.384	9565.56
230.457	9555.02
230.529	9564.6
230.602	9568.98
230.674	9580.35
230.747	9625.44
230.819	9656.07
230.892	9539.48
230.964	9536.69
231.037	9567.78
231.109	9553.04
231.181	9595.07
231.254	9552.12
231.326	9528.96
231.399	9508.05
231.471	9480.01
231.544	9404.63
231.616	9457.25
231.688	9463.27
231.761	9457.59
231.833	9437.32
231.905	9354.14
231.978	9357.56
232.05	9343.99
232.122	9345.72
232.195	9322.65
232.267	9359.97
232.339	9331.17
232.412	9396.6
232.484	9370.78
232.556	9342.97
232.629	9415.13
232.701	9434.25
232.773	9452.69
232.846	9446.96
232.918	9453.56
232.99	9468.54
233.062	9509.96
233.135	9522.38
233.207	9482.36
233.279	9529.68
233.351	9570.13
233.424	9575.76
233.496	9550.05
233.568	9637.12
233.64	9603.13
233.713	9618.11
233.785	9612.66
233.857	9632.74
233.929	9582.19
234.001	9647.81
234.074	9716.65
234.146	9645.4
234.218	9642.03
234.29	9642.27
234.362	9631.1
234.434	9583.32
234.507	9552.31
234.579	9496.11
234.651	9474.68
234.723	9507.33
234.795	9526.54
234.867	9513.2
234.939	9569.26
235.012	9588.86
235.084	9592.76
235.156	9623.68
235.228	9602.3
235.3	9585.2
235.372	9599.07
235.444	9659.07
235.516	9581.79
235.588	9586.22
235.66	9602.5
235.732	9578.81
235.804	9777.83
235.876	9821.11
235.948	9885.23
236.02	9902.23
236.092	9915.47
236.164	9935.31
236.236	9934.64
236.308	9929.34
236.38	9961.9
236.452	9944.8
236.524	9968.54
236.596	10025.94
236.668	10055.52
236.74	10084.51
236.812	10114.46
236.884	10144.05
236.956	10158.26
237.028	10153.35
237.1	10140.73
237.172	10214.1
237.244	10288.2
237.316	10166.54
237.388	10150.65
237.46	10122.89
237.532	10180.94
237.604	10176.9
237.675	10247.87
237.747	10293.49
237.819	10278.18
237.891	10284.25
237.963	10279.09
238.035	10274.09
238.107	10168.27
238.178	10236.36
238.25	10241.51
238.322	10333.65
238.394	10292.66
238.466	10287.12
238.538	10332.3
238.609	10374.16
238.681	10314.51
238.753	10289.55
238.825	10310.75
238.897	10343.69
238.968	10429.33
239.04	10411.98
239.112	10529.1
239.184	10486.4
239.255	10485.49
239.327	10523.73
239.399	10546.71
239.471	10587.95
239.542	10625.48
239.614	10689.03
239.686	10604.32
239.758	10658.38
239.829	10624.64
239.901	10686.31
239.973	10706.49
240.044	10740.17
240.116	10756.12
240.188	10777.08
240.259	10796.55
240.331	10783.53
240.403	10823.38
240.474	10773.83
240.546	10765.26
240.618	10704.25
240.689	10703.19
240.761	10728.2
240.833	10797.93
240.904	10795.18
240.976	10797.5
241.048	10815.81
241.119	10856.58
241.191	10904.42
241.262	10974.51
241.334	10977.73
241.405	10985.88
241.477	10991.85
241.549	11000
241.62	11025.68
241.692	11073.2
241.763	11135.08
241.835	11156.87
241.906	11181.01
241.978	11153.69
242.049	11219.8
242.121	11284.52
242.192	11358.45
242.264	11324.09
242.335	11275.17
242.407	11324.23
242.478	11334.54
242.55	11352.42
242.621	11337.39
242.693	11344.08
242.764	11332.95
242.836	11331.31
242.907	11362.06
242.979	11397.77
243.05	11416.57
243.122	11437.58
243.193	11434.01
243.264	11366.15
243.336	11369.77
243.407	11400.71
243.479	11485.82
243.55	11504.96
243.622	11526.31
243.693	11520.62
243.764	11586.99
243.836	11563.09
243.907	11552.53
243.978	11557.79
244.05	11586.85
244.121	11540.73
244.192	11577.41
244.264	11527.81
244.335	11542.17
244.407	11494.75
244.478	11512.49
244.549	11509.16
244.62	11464.2
244.692	11465.74
244.763	11513.74
244.834	11506.99
244.906	11484.63
244.977	11504
245.048	11553.12
245.119	11518.13
245.191	11496.78
245.262	11437.65
245.333	11519.9
245.405	11540.05
245.476	11571.72
245.547	11587.43
245.618	11640.25
245.689	11659.63
245.761	11701.94
245.832	11712.6
245.903	11758.91
245.974	11781.13
246.045	11790.87
246.117	11877.77
246.188	11857.48
246.259	11836.37
246.33	11852.56
246.401	11867.89
246.473	11829.81
246.544	11817.37
246.615	11885.44
246.686	11886.88
246.757	11958.36
246.828	11940.76
246.899	12010.61
246.97	11980.06
247.042	11967.14
247.113	12008.64
247.184	12094.35
247.255	12095.07
247.326	12122.26
247.397	12130.07
247.468	12143.23
247.539	12164.05
247.61	12121.34
247.681	12171.37
247.752	12231.19
247.823	12204.92
247.894	12215.67
247.965	12190.03
248.037	12177.59
248.108	12116.62
248.179	12126.88
248.25	12123.89
248.321	12148.62
248.392	12099.79
248.463	12183.85
248.534	12184.96
248.605	12214.12
248.675	12186.31
248.746	12198.36
248.817	12216.14
248.888	12236.73
248.959	12179.85
249.03	12204.34
249.101	12218.27
249.172	12202.02
249.243	12127.65
249.314	12198.8
249.385	12209.16
249.456	12241.45
249.527	12236.01
249.598	12263.62
249.669	12268.54
249.739	12279.82
249.81	12297.85
249.881	12253.26
249.952	12247.09
250.023	12250.08
250.094	12196.19
250.165	12167.75
250.235	12169.72
250.306	12167.36
250.377	12129.67
250.448	12157.33
250.519	12097.61
250.59	12153.43
250.66	12156.52
250.731	12228.38
250.802	12220.19
250.873	12245.93
250.944	12268.53
251.014	12260.2
251.085	12356.12
251.156	12384.18
251.227	12437.88
251.297	12488.78
251.368	12552.7
251.439	12589.38
251.51	12639.81
251.58	12625.2
251.651	12619.27
251.722	12665.45
251.792	12616.72
251.863	12630.27
251.934	12694.09
252.005	12809.29
252.075	12810.21
252.146	12865.45
252.217	12915.25
252.287	12965.72
252.358	12959.69
252.429	13029.79
252.499	13031.76
252.57	13038.03
252.641	13087.83
252.711	13093.9
252.782	13052.25
252.852	13120.99
252.923	13125.14
252.994	13138.49
253.064	13192.09
253.135	13174.5
253.205	13156.95
253.276	13239.67
253.347	13295.39
253.417	13269.89
253.488	13246.13
253.558	13236.73
253.629	13226.56
253.699	13235.62
253.77	13260.35
253.841	13256.78
253.911	13271.2
253.982	13285.17
254.052	13309.13
254.123	13311.64
254.193	13318.15
254.264	13456.54
254.334	13420.92
254.405	13387.61
254.475	13353.53
254.546	13361.38
254.616	13425.74
254.687	13457.99
254.757	13480.02
254.827	13486.82
254.898	13518.63
254.968	13522.73
255.039	13509.57
255.109	13550.74
255.18	13524.66
255.25	13444.97
255.321	13485.37
255.391	13444.49
255.461	13531.17
255.532	13455.72
255.602	13452.35
255.673	13395.61
255.743	13352.9
255.813	13288.07
255.884	13340.71
255.954	13381.59
256.024	13438.42
256.095	13441.56
256.165	13402.65
256.235	13423.62
256.306	13416.78
256.376	13459.73
256.446	13506.25
256.517	13542.93
256.587	13584.49
256.657	13607.34
256.728	13641.56
256.798	13649.23
256.868	13640.94
256.938	13607.96
257.009	13660.03
257.079	13696.66
257.149	13795.92
257.219	13731.52
257.29	13772.68
257.36	13706.74
257.43	13741.59
257.5	13676.08
257.571	13668.89
257.641	13706.69
257.711	13663.74
257.781	13688.66
257.852	13710.79
257.922	13642.62
257.992	13644.12
258.062	13639.73
258.132	13681.28
258.202	13683.31
258.273	13694.59
258.343	13769.07
258.413	13760.58
258.483	13758.03
258.553	13722.02
258.623	13696.28
258.693	13741.78
258.764	13809.61
258.834	13884.09
258.904	13904.24
258.974	13899.51
259.044	13909.59
259.114	13938.17
259.184	13972.93
259.254	13984.21
259.324	13926.41
259.394	13970.96
259.464	14050.98
259.535	14064.91
259.605	14059.65
259.675	14050.2
259.745	14084.04
259.815	14068.28
259.885	14065.2
259.955	14174.04
260.025	14168.83
260.095	14182.09
260.165	14206.77
260.235	14263.94
260.305	14248.41
260.375	14216.74
260.445	14312.67
260.515	14377.89
260.585	14434.2
260.655	14443.84
260.725	14493.78
260.795	14535.48
260.865	14610.29
260.934	14573.22
261.004	14598
261.074	14602.62
261.144	14671.42
261.214	14709.54
261.284	14706.07
261.354	14748.11
261.424	14703.62
261.494	14778.44
261.564	14785.86
261.634	14801.91
261.703	14737.56
261.773	14762
261.843	14792.18
261.913	14780.75
261.983	14722.86
262.053	14738.43
262.123	14737.46
262.192	14686.95
262.262	14728.35
262.332	14680
262.402	14717.65
262.472	14729.46
262.541	14668.24
262.611	14712.97
262.681	14690.41
262.751	14734.28
262.821	14741.08
262.89	14712.83
262.96	14736.69
263.03	14813.09
