Data from 20250701_urea_2M_exp3_MAYP1162681_22-09-51-036.txt Node
Date: Tue Jul 01 22:09:51 BST 2025
User: adleo
Spectrometer: MAYP116268
Trigger mode: 0
Integration Time (sec): 4.000000E0
Scans to average: 1
Electric dark correction enabled: true
Nonlinearity correction enabled: true
Boxcar width: 10
XAxis mode: Wavelengths
Number of Pixels in Spectrum: 2068
>>>>>Begin Spectral Data<<<<<
179.565	3824.47
179.642	4025.78
179.718	4190.78
179.795	4326.51
179.871	4439.99
179.948	4509.88
180.024	4584.34
180.101	4670.79
180.177	4730.01
180.254	4814.65
180.33	4892.47
180.407	5170.66
180.483	5468.93
180.56	5774.93
180.636	6051.57
180.712	6013.5
180.789	6051.21
180.865	6097.49
180.942	6128.48
181.018	6171.09
181.095	6217.19
181.171	6234.42
181.248	6236.19
181.324	6286.24
181.4	6315.14
181.477	6357.96
181.553	6399.99
181.63	6475.66
181.706	6529.4
181.782	6554.69
181.859	6550.89
181.935	6567.94
182.011	6554.11
182.088	6615.83
182.164	6680.94
182.24	6732.83
182.317	6759.95
182.393	6756.26
182.469	6801.55
182.546	6850.92
182.622	6865.71
182.698	6853.22
182.775	6891.7
182.851	6942.66
182.927	6921.23
183.003	6906.35
183.08	6881.28
183.156	6918.65
183.232	6905.38
183.308	6863.55
183.385	6891.21
183.461	6949.14
183.537	6958.27
183.613	7004.44
183.69	6969.03
183.766	6929.51
183.842	6953.83
183.918	6973.24
183.995	7016.33
184.071	7027.33
184.147	7010.23
184.223	6973.79
184.299	7014.2
184.375	6978.13
184.452	7000.68
184.528	7124.34
184.604	7165.32
184.68	7207.06
184.756	7228.59
184.832	7240.37
184.908	7255.25
184.985	7250.59
185.061	7197.17
185.137	7229.13
185.213	7192.9
185.289	7200.16
185.365	7176.62
185.441	7172.63
185.517	7221.1
185.593	7209.32
185.669	7202.59
185.745	7237.39
185.822	7289.93
185.898	7262.48
185.974	7301.1
186.05	7274.95
186.126	7198.58
186.202	7172.01
186.278	7165.38
186.354	7128.13
186.43	7154.48
186.506	7152.84
186.582	7150.92
186.658	7172.24
186.734	7102.44
186.81	7113.39
186.886	7120.84
186.962	7164.51
187.038	7148.6
187.114	7115.18
187.19	7147.44
187.266	7117.94
187.341	7121.69
187.417	7101.03
187.493	7099.16
187.569	7110.31
187.645	7084.22
187.721	7040.82
187.797	7066.76
187.873	7076.28
187.949	7064.84
188.025	7037.3
188.101	7046.95
188.176	7065.16
188.252	7052.48
188.328	7076.72
188.404	7071.1
188.48	7050.26
188.556	7025.27
188.632	7022.29
188.707	7035.85
188.783	7022.19
188.859	7006.93
188.935	6961.56
189.011	6991.01
189.086	6972.81
189.162	6943.25
189.238	6940.71
189.314	6936.1
189.39	6914.76
189.465	6891.94
189.541	6942.98
189.617	6891.49
189.693	6874.39
189.768	6891.5
189.844	6976.4
189.92	6948.99
189.996	6976.95
190.071	7018.7
190.147	7014.9
190.223	7048.74
190.298	7014.95
190.374	6970.46
190.45	7005.9
190.526	7038.96
190.601	7007.64
190.677	7009.12
190.753	7099.43
190.828	7110.05
190.904	7163.4
190.98	7217.86
191.055	7255.82
191.131	7229.62
191.207	7306.5
191.282	7339.31
191.358	7303.94
191.433	7251.42
191.509	7295.98
191.585	7287.91
191.66	7290.6
191.736	7319.05
191.811	7285.5
191.887	7351.28
191.963	7432.13
192.038	7448.95
192.114	7450.2
192.189	7474.75
192.265	7468.7
192.34	7395.21
192.416	7390.26
192.491	7374.58
192.567	7381.08
192.642	7392.72
192.718	7394.06
192.793	7348.45
192.869	7332.64
192.944	7341.19
193.02	7367.25
193.095	7382.91
193.171	7407.77
193.246	7405.7
193.322	7395.61
193.397	7397.91
193.473	7337.85
193.548	7276.46
193.624	7297.61
193.699	7292.04
193.775	7338.34
193.85	7339.5
193.925	7366.32
194.001	7367.28
194.076	7342.67
194.152	7307.81
194.227	7279.97
194.302	7244.62
194.378	7260.62
194.453	7251.88
194.529	7295.57
194.604	7247.85
194.679	7230.54
194.755	7163.43
194.83	7209.65
194.905	7201.57
194.981	7233.3
195.056	7212.11
195.131	7228.21
195.207	7216.23
195.282	7183.95
195.357	7118.18
195.433	7173.15
195.508	7133.98
195.583	7155.75
195.659	7203.15
195.734	7225.84
195.809	7219.93
195.884	7252.74
195.96	7254.8
196.035	7306.61
196.11	7289.11
196.185	7328.08
196.261	7337.41
196.336	7445.12
196.411	7394.82
196.486	7415.58
196.561	7394.77
196.637	7428.49
196.712	7485.73
196.787	7503.57
196.862	7554.61
196.937	7594.06
197.013	7610.9
197.088	7646.99
197.163	7726.36
197.238	7783.54
197.313	7783.59
197.388	7829.36
197.464	7935.25
197.539	7972.46
197.614	7951.21
197.689	7995.8
197.764	8054.74
197.839	8120.44
197.914	8095.66
197.989	8174.55
198.065	8213.8
198.14	8386.36
198.215	8471.71
198.29	8516.58
198.365	8553.29
198.44	8596.25
198.515	8694.96
198.59	8754.07
198.665	8845.75
198.74	8870.5
198.815	8877.33
198.89	8953.76
198.965	9061.08
199.04	9044.76
199.115	9098.99
199.19	9249.65
199.265	9256.53
199.34	9287.39
199.415	9401.4
199.49	9475.81
199.565	9504.89
199.64	9596.57
199.715	9583.85
199.79	9605.27
199.865	9621.94
199.94	9622.08
200.015	9730.02
200.09	9742.25
200.165	9762.67
200.24	9786.51
200.315	9922.83
200.39	9975.43
200.464	9998.21
200.539	10000.67
200.614	10051.52
200.689	10131.68
200.764	10148.3
200.839	10207.52
200.914	10232.86
200.989	10197.93
201.063	10246.48
201.138	10188.23
201.213	10188.04
201.288	10124.03
201.363	10148.45
201.438	10147.53
201.512	10207.44
201.587	10141.82
201.662	10160.75
201.737	10196.11
201.812	10223.77
201.886	10111.39
201.961	10143.34
202.036	10103.13
202.111	10092
202.186	9989.51
202.26	9933.14
202.335	9858.53
202.41	9841.09
202.485	9777.82
202.559	9713.24
202.634	9624.81
202.709	9654.8
202.784	9583.29
202.858	9582.95
202.933	9513.27
203.008	9486.35
203.082	9414.95
203.157	9412.34
203.232	9256.65
203.306	9182.1
203.381	9065.37
203.456	8987.91
203.53	8908.51
203.605	8836.34
203.68	8757.04
203.754	8740.4
203.829	8681.86
203.904	8611.65
203.978	8571.59
204.053	8586.75
204.127	8541.96
204.202	8538.35
204.277	8476.33
204.351	8456.64
204.426	8430.6
204.5	8404.04
204.575	8288.32
204.65	8322.07
204.724	8296.88
204.799	8327.12
204.873	8319.8
204.948	8315.47
205.022	8272.81
205.097	8237.81
205.171	8284.28
205.246	8309.31
205.32	8306.28
205.395	8312.15
205.469	8280.95
205.544	8299.43
205.618	8233.08
205.693	8270.76
205.767	8218.28
205.842	8295.41
205.916	8275.21
205.991	8242.25
206.065	8265.35
206.14	8319.61
206.214	8302.04
206.289	8271.91
206.363	8315.84
206.438	8323.78
206.512	8348.99
206.586	8416.1
206.661	8446.14
206.735	8371.13
206.81	8371.76
206.884	8422.07
206.958	8377
207.033	8433.5
207.107	8454.97
207.181	8565.92
207.256	8547.39
207.33	8614.79
207.405	8656.46
207.479	8719.02
207.553	8745.24
207.628	8683.62
207.702	8722.79
207.776	8703.49
207.851	8713.64
207.925	8764.34
207.999	8749.57
208.073	8745.62
208.148	8750.77
208.222	8709.76
208.296	8830.6
208.371	8891.76
208.445	8927.82
208.519	9027.83
208.593	9076.78
208.668	9064.17
208.742	9072.31
208.816	9075.68
208.89	9124.17
208.965	9113.09
209.039	9141.89
209.113	9200.62
209.187	9279.47
209.261	9267.39
209.336	9329.54
209.41	9406.44
209.484	9408.23
209.558	9483.44
209.632	9529.23
209.707	9567.75
209.781	9640.7
209.855	9687.52
209.929	9736.33
210.003	9763.06
210.077	9755.93
210.151	9918.08
210.226	10031.92
210.3	10125.37
210.374	10211.12
210.448	10223.84
210.522	10268.6
210.596	10306.03
210.67	10341.49
210.744	10504.87
210.818	10619.3
210.892	10693.83
210.966	10668.69
211.041	10722.17
211.115	10711.38
211.189	10793.76
211.263	10849.6
211.337	10875.09
211.411	10922.89
211.485	10908.1
211.559	10943.27
211.633	10949
211.707	10842.58
211.781	10873.38
211.855	10749.45
211.929	10721.89
212.003	10659
212.077	10688.83
212.151	10728.97
212.225	10755.62
212.299	10710.89
212.373	10663.53
212.447	10645.65
212.52	10746.01
212.594	10754.4
212.668	10793.28
212.742	10734.35
212.816	10715.46
212.89	10688.58
212.964	10673.74
213.038	10678.84
213.112	10718.22
213.186	10768.56
213.26	10684.23
213.333	10517.59
213.407	10529.24
213.481	10528.91
213.555	10564.2
213.629	10511.48
213.703	10443.78
213.777	10429.52
213.85	10350.74
213.924	10460.51
213.998	10445.91
214.072	10415.26
214.146	10360.29
214.219	10336.53
214.293	10318.42
214.367	10308.88
214.441	10334.95
214.515	10288.45
214.588	10196.14
214.662	10061.46
214.736	9972.6
214.81	9985.5
214.883	10001.15
214.957	9950.59
215.031	9886.61
215.105	9787.28
215.178	9716.34
215.252	9679.64
215.326	9574.46
215.4	9491.76
215.473	9301.88
215.547	9216.68
215.621	9138.63
215.694	9129.05
215.768	9021.15
215.842	8946.88
215.915	8876.37
215.989	8756.1
216.063	8697.06
216.136	8669.33
216.21	8639.59
216.284	8647.49
216.357	8621.26
216.431	8575.3
216.504	8563.51
216.578	8621.13
216.652	8631.51
216.725	8609.38
216.799	8610.72
216.873	8593.79
216.946	8598.98
217.02	8555.37
217.093	8524.33
217.167	8426.7
217.24	8339.19
217.314	8308.89
217.387	8264.32
217.461	8211.35
217.535	8239.31
217.608	8173.73
217.682	8146.4
217.755	8167.18
217.829	8107.85
217.902	8088.95
217.976	8072.31
218.049	8026.76
218.123	7949.75
218.196	7955.09
218.27	7922.52
218.343	7848.85
218.417	7844.13
218.49	7815.66
218.563	7864.71
218.637	7874.43
218.71	7945.34
218.784	7974.4
218.857	8006.19
218.931	8031.81
219.004	8041.19
219.077	8055.38
219.151	8072.5
219.224	8065.96
219.298	8056.1
219.371	8104.5
219.444	8065.02
219.518	8073.25
219.591	8093.01
219.665	8198.58
219.738	8206.81
219.811	8185.75
219.885	8231.26
219.958	8260.56
220.031	8267.73
220.105	8289.62
220.178	8287.6
220.251	8261.23
220.325	8284.96
220.398	8306.99
220.471	8323.3
220.544	8362.66
220.618	8342.06
220.691	8374
220.764	8391.18
220.838	8415.72
220.911	8397.05
220.984	8484.02
221.057	8524.1
221.131	8549.5
221.204	8449.8
221.277	8515.93
221.35	8642.02
221.424	8632.64
221.497	8646.69
221.57	8671.32
221.643	8701.7
221.716	8757.59
221.79	8762.3
221.863	8769.77
221.936	8775.16
222.009	8795.51
222.082	8823.62
222.155	8827.43
222.229	8894.55
222.302	8925.59
222.375	8934.54
222.448	8975.65
222.521	8985.18
222.594	8983.5
222.667	8956.17
222.74	9015.61
222.814	9018.45
222.887	9005.59
222.96	9065
223.033	9109.06
223.106	9135.2
223.179	9161.3
223.252	9173.29
223.325	9209.15
223.398	9224.42
223.471	9254.07
223.544	9273.8
223.617	9288.83
223.69	9313.62
223.763	9271.58
223.837	9298.83
223.91	9328.01
223.983	9281.9
224.056	9243.05
224.129	9269.96
224.202	9327.51
224.275	9312.59
224.348	9280.38
224.42	9240.6
224.493	9182.3
224.566	9155.33
224.639	9177
224.712	9152
224.785	9134.42
224.858	9123.59
224.931	9106.49
225.004	9069.48
225.077	9065.43
225.15	8973.51
225.223	8972.3
225.296	9061.03
225.369	8999.13
225.442	8965.91
225.514	8989.3
225.587	9010.43
225.66	9015.72
225.733	9009.08
225.806	9025.21
225.879	9012.79
225.952	8981.89
226.025	9032.44
226.097	9082.54
226.17	9068.81
226.243	8999.99
226.316	8997.68
226.389	9003.7
226.461	9026.18
226.534	9040.48
226.607	9033.88
226.68	9121.57
226.753	9117.72
226.825	9025.62
226.898	9088.49
226.971	9090.41
227.044	9105.24
227.117	9111.88
227.189	9134.71
227.262	9176.27
227.335	9186.19
227.407	9185.27
227.48	9214.77
227.553	9223.88
227.626	9207.11
227.698	9216.55
227.771	9259.42
227.844	9235.59
227.916	9250.51
227.989	9210.36
228.062	9209.06
228.134	9300.03
228.207	9300.85
228.28	9288.91
228.352	9298.26
228.425	9297.44
228.498	9341.88
228.57	9318.01
228.643	9378.35
228.716	9371.61
228.788	9352.73
228.861	9353.21
228.934	9416.62
229.006	9429
229.079	9429.96
229.151	9413.39
229.224	9377.58
229.296	9401.36
229.369	9507.05
229.442	9558.49
229.514	9546.65
229.587	9591.43
229.659	9507.72
229.732	9520.3
229.804	9566.81
229.877	9649.95
229.949	9687.28
230.022	9748.47
230.094	9758.24
230.167	9741.67
230.239	9699.2
230.312	9695.83
230.384	9762.65
230.457	9763.61
230.529	9773.29
230.602	9773.48
230.674	9785.62
230.747	9832.07
230.819	9869.69
230.892	9751.11
230.964	9748.56
231.037	9775.27
231.109	9767.37
231.181	9815.09
231.254	9778.3
231.326	9762.84
231.399	9734.03
231.471	9704.79
231.544	9616.67
231.616	9658.52
231.688	9664.15
231.761	9656.4
231.833	9640.37
231.905	9554.24
231.978	9547.74
232.05	9535.17
232.122	9536.71
232.195	9504.93
232.267	9544.95
232.339	9521.11
232.412	9592.47
232.484	9570.31
232.556	9542.54
232.629	9611.82
232.701	9625.69
232.773	9639.36
232.846	9630.7
232.918	9639.37
232.99	9657.96
233.062	9707.96
233.135	9718.65
233.207	9688.84
233.279	9736.6
233.351	9778.35
233.424	9784.03
233.496	9758.51
233.568	9847.38
233.64	9811.17
233.713	9833.51
233.785	9829.27
233.857	9847.09
233.929	9788.15
234.001	9852.52
234.074	9920.46
234.146	9852.29
234.218	9851.86
234.29	9854.65
234.362	9847.19
234.434	9799.45
234.507	9753.21
234.579	9696.86
234.651	9681.21
234.723	9713.77
234.795	9720.99
234.867	9715.21
234.939	9773.16
235.012	9793.72
235.084	9790.88
235.156	9829.74
235.228	9811.2
235.3	9793.95
235.372	9797.33
235.444	9857.71
235.516	9776.34
235.588	9781.69
235.66	9796.71
235.732	9771.42
235.804	9968.29
235.876	10014.81
235.948	10088.81
236.02	10114.23
236.092	10128.44
236.164	10139.13
236.236	10139.03
236.308	10144.86
236.38	10167.41
236.452	10147.37
236.524	10168.41
236.596	10233.09
236.668	10270.14
236.74	10292.2
236.812	10321.63
236.884	10358.64
236.956	10369.91
237.028	10368.37
237.1	10352.76
237.172	10427.64
237.244	10504.92
237.316	10381.09
237.388	10357.05
237.46	10324.96
237.532	10387.11
237.604	10381.57
237.675	10460.26
237.747	10508.01
237.819	10497.07
237.891	10506.57
237.963	10501.03
238.035	10496.16
238.107	10384.22
238.178	10446.87
238.25	10456.7
238.322	10547.25
238.394	10495.7
238.466	10502.11
238.538	10546.23
238.609	10592.14
238.681	10534.99
238.753	10516.3
238.825	10544.73
238.897	10583.41
238.968	10666.3
239.04	10650.83
239.112	10772.4
239.184	10729.41
239.255	10724.93
239.327	10756.96
239.399	10776.86
239.471	10834.3
239.542	10870.82
239.614	10946.61
239.686	10858.33
239.758	10919.28
239.829	10879.32
239.901	10953.81
239.973	10967.4
240.044	10997.04
240.116	11006.96
240.188	11021.27
240.259	11033.99
240.331	11019.49
240.403	11056.59
240.474	11015.04
240.546	11000.97
240.618	10933.6
240.689	10936.78
240.761	10955.19
240.833	11027.91
240.904	11027.14
240.976	11012.83
241.048	11025.89
241.119	11056.78
241.191	11107.67
241.262	11176.26
241.334	11184.11
241.405	11182.04
241.477	11189.7
241.549	11202.04
241.62	11235.87
241.692	11283
241.763	11341.51
241.835	11363.73
241.906	11381.13
241.978	11350.19
242.049	11419.49
242.121	11485.8
242.192	11559.06
242.264	11530.72
242.335	11479.15
242.407	11531.59
242.478	11539.78
242.55	11570.63
242.621	11555.01
242.693	11559.06
242.764	11543.2
242.836	11549.23
242.907	11587.25
242.979	11618.87
243.05	11644.95
243.122	11670.35
243.193	11673.09
243.264	11602.53
243.336	11611.31
243.407	11651.75
243.479	11733.58
243.55	11752.14
243.622	11763.32
243.693	11756.43
243.764	11824.97
243.836	11801.89
243.907	11790.22
243.978	11798.51
244.05	11818.71
244.121	11779.19
244.192	11821.22
244.264	11773.21
244.335	11785.74
244.407	11739.86
244.478	11753.16
244.549	11742.41
244.62	11685.2
244.692	11683.76
244.763	11731.42
244.834	11711.8
244.906	11681.97
244.977	11707.56
245.048	11760.93
245.119	11742.32
245.191	11714.65
245.262	11638.46
245.333	11722.02
245.405	11743.38
245.476	11777.5
245.547	11802.18
245.618	11855.39
245.689	11869.85
245.761	11910.24
245.832	11917.04
245.903	11960.9
245.974	11987.41
246.045	11997.63
246.117	12090.03
246.188	12073.01
246.259	12056.34
246.33	12077.64
246.401	12094.27
246.473	12053.39
246.544	12044.14
246.615	12103.38
246.686	12113.21
246.757	12195.43
246.828	12166.37
246.899	12234.77
246.97	12199.01
247.042	12182.96
247.113	12223.16
247.184	12308
247.255	12298.75
247.326	12323.77
247.397	12333.36
247.468	12345.84
247.539	12366.67
247.61	12318.27
247.681	12364.01
247.752	12418.43
247.823	12400.12
247.894	12414.43
247.965	12383.78
248.037	12368.54
248.108	12310.03
248.179	12320.15
248.25	12313.45
248.321	12349.21
248.392	12298.64
248.463	12384.59
248.534	12386.66
248.605	12413.9
248.675	12383.28
248.746	12404.06
248.817	12417.56
248.888	12432.02
248.959	12369.94
249.03	12387.19
249.101	12399.92
249.172	12393.02
249.243	12317.88
249.314	12380.5
249.385	12389.51
249.456	12425.13
249.527	12415.59
249.598	12446.97
249.669	12447.64
249.739	12468.85
249.81	12480.76
249.881	12431.78
249.952	12427.25
250.023	12425.71
250.094	12369.98
250.165	12346.84
250.235	12344.87
250.306	12351.42
250.377	12324.19
250.448	12359.91
250.519	12305.39
250.59	12362.75
250.66	12357.79
250.731	12434.57
250.802	12430.28
250.873	12455.88
250.944	12476.6
251.014	12471.35
251.085	12562.8
251.156	12592.01
251.227	12642.43
251.297	12691.99
251.368	12754.6
251.439	12796.88
251.51	12850.15
251.58	12832.79
251.651	12830.09
251.722	12881.29
251.792	12829.9
251.863	12835.45
251.934	12903.27
252.005	13022.43
252.075	13031.06
252.146	13082.25
252.217	13130.8
252.287	13178.47
252.358	13179.58
252.429	13251.36
252.499	13245
252.57	13247.7
252.641	13297.69
252.711	13302.51
252.782	13265.34
252.852	13343.82
252.923	13348.55
252.994	13364.65
253.064	13415.98
253.135	13389.62
253.205	13375.83
253.276	13452.86
253.347	13518.52
253.417	13494.08
253.488	13468.86
253.558	13455.41
253.629	13458.6
253.699	13475.28
253.77	13509.69
253.841	13499.28
253.911	13515.19
253.982	13534.09
254.052	13568.84
254.123	13574.87
254.193	13582.48
254.264	13727.72
254.334	13689.5
254.405	13651.37
254.475	13616.51
254.546	13621.72
254.616	13688.92
254.687	13718.52
254.757	13751.39
254.827	13747.97
254.898	13772.27
254.968	13777.23
255.039	13762.58
255.109	13797.72
255.18	13765.61
255.25	13683.13
255.321	13717.26
255.391	13670.99
255.461	13759.69
255.532	13676.34
255.602	13672.39
255.673	13609.43
255.743	13566.72
255.813	13497.06
255.884	13553.32
255.954	13583.26
256.024	13648.34
256.095	13653.78
256.165	13613.63
256.235	13629.15
256.306	13615.84
256.376	13655.13
256.446	13696.35
256.517	13737.71
256.587	13775.12
256.657	13801.68
256.728	13826.79
256.798	13842.41
256.868	13846.75
256.938	13813.54
257.009	13858.71
257.079	13885.08
257.149	13991.95
257.219	13924.36
257.29	13967.7
257.36	13905.61
257.43	13956.61
257.5	13888.69
257.571	13876.11
257.641	13916.55
257.711	13882.62
257.781	13913.71
257.852	13942.29
257.922	13878.81
257.992	13876.49
258.062	13868.92
258.132	13910.09
258.202	13919.54
258.273	13926.1
258.343	13995.46
258.413	13980.23
258.483	13988.38
258.553	13961.24
258.623	13931.06
258.693	13963.12
258.764	14025.79
258.834	14092.22
258.904	14096.79
258.974	14090.91
259.044	14104.6
259.114	14130.49
259.184	14152.62
259.254	14163.8
259.324	14110.34
259.394	14157.87
259.464	14238.52
259.535	14254.09
259.605	14249.37
259.675	14234.76
259.745	14268.21
259.815	14247
259.885	14250.38
259.955	14358.97
260.025	14353.38
260.095	14368.28
260.165	14398.26
260.235	14460.88
260.305	14440.05
260.375	14412.72
260.445	14503.06
260.515	14558.93
260.585	14610.31
260.655	14620.48
260.725	14661.6
260.795	14693.9
260.865	14769.14
260.934	14736.27
261.004	14767.75
261.074	14765.14
261.144	14830.37
261.214	14863.96
261.284	14863.77
261.354	14901.18
261.424	14853.56
261.494	14929.43
261.564	14926.2
261.634	14962.07
261.703	14892.94
261.773	14928.47
261.843	14966.99
261.913	14962.55
261.983	14919.7
262.053	14939.22
262.123	14947.17
262.192	14910.73
262.262	14957.68
262.332	14904.8
262.402	14940.47
262.472	14946.88
262.541	14888.7
262.611	14938.25
262.681	14922.49
262.751	14964.62
262.821	14982.12
262.89	14952.04
262.96	14973.1
263.03	15058.81
