Data from 20250701_urea_2M_exp3_MAYP1162681_21-39-51-165.txt Node
Date: Tue Jul 01 21:39:51 BST 2025
User: adleo
Spectrometer: MAYP116268
Trigger mode: 0
Integration Time (sec): 4.000000E0
Scans to average: 1
Electric dark correction enabled: true
Nonlinearity correction enabled: true
Boxcar width: 10
XAxis mode: Wavelengths
Number of Pixels in Spectrum: 2068
>>>>>Begin Spectral Data<<<<<
179.565	3874.13
179.642	4080.95
179.718	4238.04
179.795	4375.29
179.871	4494.23
179.948	4557.2
180.024	4632.6
180.101	4715.97
180.177	4771.85
180.254	4860.18
180.33	4941.87
180.407	5227.56
180.483	5530.05
180.56	5835.52
180.636	6113.08
180.712	6072.41
180.789	6112.68
180.865	6156.46
180.942	6189.95
181.018	6226.85
181.095	6268.1
181.171	6285.19
181.248	6283.56
181.324	6337.73
181.4	6362.12
181.477	6401.83
181.553	6456.86
181.63	6532.2
181.706	6590.22
181.782	6618.05
181.859	6611.43
181.935	6629.05
182.011	6611.38
182.088	6668.68
182.164	6742.79
182.24	6797.46
182.317	6826.89
182.393	6816.19
182.469	6867.96
182.546	6912.49
182.622	6938.81
182.698	6931.46
182.775	6977.14
182.851	7027.1
182.927	7001.68
183.003	6988.81
183.08	6966.86
183.156	6994.3
183.232	6981.03
183.308	6934.92
183.385	6963.01
183.461	7024.99
183.537	7026.38
183.613	7071.59
183.69	7037.67
183.766	6990.27
183.842	7010.55
183.918	7030.63
183.995	7080.17
184.071	7088.39
184.147	7072.53
184.223	7028.11
184.299	7065.75
184.375	7023.95
184.452	7046.94
184.528	7183.31
184.604	7224.23
184.68	7267.76
184.756	7292.33
184.832	7311.21
184.908	7331.82
184.985	7326.82
185.061	7273.14
185.137	7308.28
185.213	7266.96
185.289	7275.17
185.365	7255.34
185.441	7248.75
185.517	7297.46
185.593	7278
185.669	7267.76
185.745	7300.68
185.822	7360.09
185.898	7332.5
185.974	7367.52
186.05	7339.87
186.126	7259.11
186.202	7239.55
186.278	7228.74
186.354	7190.77
186.43	7207.16
186.506	7204.33
186.582	7207.26
186.658	7228.11
186.734	7157.39
186.81	7171.7
186.886	7182.8
186.962	7224.02
187.038	7212.87
187.114	7179.74
187.19	7212.33
187.266	7183.5
187.341	7188.22
187.417	7161.64
187.493	7164.91
187.569	7174.43
187.645	7157.85
187.721	7114.49
187.797	7134.67
187.873	7145.63
187.949	7132.18
188.025	7110.26
188.101	7119.58
188.176	7133.65
188.252	7117.75
188.328	7140.27
188.404	7133.88
188.48	7114.43
188.556	7089.77
188.632	7087.13
188.707	7095.35
188.783	7082.23
188.859	7068.59
188.935	7027.74
189.011	7050.89
189.086	7023.89
189.162	6997.23
189.238	6986.42
189.314	6982.86
189.39	6964.17
189.465	6937.12
189.541	6991.66
189.617	6940.94
189.693	6921.29
189.768	6937.54
189.844	7024.85
189.92	7000.22
189.996	7034.34
190.071	7072.25
190.147	7072.29
190.223	7107.96
190.298	7076.09
190.374	7031.69
190.45	7070.12
190.526	7099.43
190.601	7088.29
190.677	7095.49
190.753	7189.02
190.828	7205.21
190.904	7250.88
190.98	7301.73
191.055	7342.3
191.131	7316.14
191.207	7392.89
191.282	7429.83
191.358	7392.2
191.433	7340.64
191.509	7387.61
191.585	7381.07
191.66	7383.72
191.736	7407.41
191.811	7371.22
191.887	7436.32
191.963	7518.76
192.038	7534
192.114	7535.68
192.189	7545.53
192.265	7536.07
192.34	7466.23
192.416	7462.72
192.491	7453.77
192.567	7459.74
192.642	7468.49
192.718	7467.48
192.793	7422.49
192.869	7407.68
192.944	7417.24
193.02	7441.05
193.095	7454.6
193.171	7472.77
193.246	7471.28
193.322	7464.36
193.397	7474.21
193.473	7420.01
193.548	7356.74
193.624	7378.04
193.699	7374.96
193.775	7431.09
193.85	7433.15
193.925	7458.63
194.001	7458.58
194.076	7426.62
194.152	7393.59
194.227	7367.48
194.302	7330.2
194.378	7341.83
194.453	7331.07
194.529	7373.95
194.604	7327.94
194.679	7310.31
194.755	7243
194.83	7290.81
194.905	7282.11
194.981	7309.41
195.056	7283.32
195.131	7307.79
195.207	7301.39
195.282	7260.02
195.357	7188.28
195.433	7244.8
195.508	7208.36
195.583	7231.67
195.659	7282.43
195.734	7309.12
195.809	7298.5
195.884	7334.14
195.96	7339.52
196.035	7389.17
196.11	7379.12
196.185	7417.57
196.261	7432.47
196.336	7542.84
196.411	7487.72
196.486	7509.21
196.561	7488.34
196.637	7519.77
196.712	7570.61
196.787	7577.39
196.862	7636.07
196.937	7673.95
197.013	7686.26
197.088	7716.59
197.163	7789.14
197.238	7851.95
197.313	7853.1
197.388	7906.91
197.464	8011.46
197.539	8048
197.614	8026.22
197.689	8067.98
197.764	8130.72
197.839	8196.48
197.914	8170.83
197.989	8245.25
198.065	8290.37
198.14	8462.51
198.215	8557.11
198.29	8604.96
198.365	8651.92
198.44	8691.91
198.515	8797.03
198.59	8854.25
198.665	8947.96
198.74	8978.73
198.815	8984.08
198.89	9059.88
198.965	9160.71
199.04	9146.55
199.115	9202.67
199.19	9349.04
199.265	9355.4
199.34	9386.75
199.415	9505.77
199.49	9582.88
199.565	9618.18
199.64	9708.47
199.715	9702.88
199.79	9721.52
199.865	9739.14
199.94	9737.6
200.015	9841.3
200.09	9851.75
200.165	9869.91
200.24	9888.36
200.315	10028.35
200.39	10073.87
200.464	10094.96
200.539	10105.18
200.614	10160.51
200.689	10240.72
200.764	10265.49
200.839	10326.64
200.914	10336.37
200.989	10292.33
201.063	10335.25
201.138	10281.28
201.213	10277.91
201.288	10207.92
201.363	10228.87
201.438	10222.9
201.512	10276.64
201.587	10220.13
201.662	10234.2
201.737	10281.99
201.812	10315.47
201.886	10189.89
201.961	10234.75
202.036	10189.63
202.111	10176.09
202.186	10076.76
202.26	10019.86
202.335	9947.26
202.41	9926.65
202.485	9871.08
202.559	9802.98
202.634	9719.85
202.709	9751.67
202.784	9676.98
202.858	9671.44
202.933	9607.1
203.008	9585.29
203.082	9514.12
203.157	9512.29
203.232	9361.69
203.306	9284.38
203.381	9171.59
203.456	9099.52
203.53	9007.06
203.605	8943.31
203.68	8862.46
203.754	8837.06
203.829	8780.97
203.904	8707.43
203.978	8668.48
204.053	8681.05
204.127	8638.36
204.202	8628.4
204.277	8564.64
204.351	8546.69
204.426	8523.29
204.5	8492.11
204.575	8373.15
204.65	8407.81
204.724	8377.19
204.799	8404.26
204.873	8395.25
204.948	8387.17
205.022	8348.93
205.097	8321.49
205.171	8366.57
205.246	8393.57
205.32	8388.04
205.395	8383.95
205.469	8351.26
205.544	8370.47
205.618	8313.01
205.693	8357.67
205.767	8314.56
205.842	8385.74
205.916	8362.98
205.991	8330.6
206.065	8348.6
206.14	8405.37
206.214	8392.56
206.289	8368.3
206.363	8417.43
206.438	8416.9
206.512	8444.14
206.586	8505.53
206.661	8533.26
206.735	8456.46
206.81	8459.4
206.884	8513.08
206.958	8473.73
207.033	8538.27
207.107	8558.98
207.181	8667.04
207.256	8643.36
207.33	8713.33
207.405	8759.67
207.479	8829.11
207.553	8852.4
207.628	8801.94
207.702	8844.14
207.776	8823.01
207.851	8833.7
207.925	8879.83
207.999	8872.08
208.073	8865.34
208.148	8872.37
208.222	8833.28
208.296	8943.25
208.371	9000.61
208.445	9038.45
208.519	9136.4
208.593	9178.52
208.668	9163.5
208.742	9172.22
208.816	9180.69
208.89	9227.4
208.965	9221.86
209.039	9249.89
209.113	9316.39
209.187	9387.4
209.261	9367.66
209.336	9436.9
209.41	9508.27
209.484	9508.85
209.558	9588.98
209.632	9635.06
209.707	9678.79
209.781	9754.1
209.855	9809.98
209.929	9866.65
210.003	9884.18
210.077	9880.52
210.151	10042.14
210.226	10167.12
210.3	10260.32
210.374	10339.3
210.448	10347.63
210.522	10382.85
210.596	10416.58
210.67	10444.52
210.744	10603.13
210.818	10717.9
210.892	10786.23
210.966	10767.2
211.041	10828.44
211.115	10815.48
211.189	10902.93
211.263	10958.43
211.337	10979.97
211.411	11028.06
211.485	11005.75
211.559	11050.84
211.633	11059.61
211.707	10951.69
211.781	10976.86
211.855	10851.33
211.929	10823.87
212.003	10756.59
212.077	10788.69
212.151	10826.04
212.225	10852.2
212.299	10813.54
212.373	10772.3
212.447	10750.86
212.52	10847.08
212.594	10847.08
212.668	10878.93
212.742	10818.55
212.816	10798.41
212.89	10776.54
212.964	10762.99
213.038	10770.7
213.112	10806.99
213.186	10851.8
213.26	10771.46
213.333	10598.22
213.407	10613.97
213.481	10608.77
213.555	10650.03
213.629	10602.37
213.703	10541.03
213.777	10534.28
213.85	10459.45
213.924	10565.95
213.998	10554.1
214.072	10520.17
214.146	10463.7
214.219	10450.06
214.293	10427.76
214.367	10420.73
214.441	10436.91
214.515	10388.2
214.588	10288.43
214.662	10156.29
214.736	10068.97
214.81	10078.5
214.883	10104.16
214.957	10048.78
215.031	9988.22
215.105	9891.81
215.178	9817.21
215.252	9774.44
215.326	9665.16
215.4	9576.82
215.473	9381.35
215.547	9294.22
215.621	9219.59
215.694	9210.58
215.768	9102.1
215.842	9025.41
215.915	8945.56
215.989	8830.14
216.063	8768.84
216.136	8751.65
216.21	8722.63
216.284	8729.57
216.357	8702.9
216.431	8659.05
216.504	8653.18
216.578	8713.11
216.652	8720.18
216.725	8702.56
216.799	8706.8
216.873	8689.58
216.946	8696.7
217.02	8661.06
217.093	8632.33
217.167	8531.8
217.24	8443.72
217.314	8409.19
217.387	8371.63
217.461	8323.9
217.535	8352.48
217.608	8285.32
217.682	8253.42
217.755	8265.54
217.829	8208.13
217.902	8189.6
217.976	8161.51
218.049	8116.44
218.123	8039.71
218.196	8035.05
218.27	7990.4
218.343	7919.18
218.417	7912.73
218.49	7886.08
218.563	7930.43
218.637	7940.39
218.71	8012.31
218.784	8041.42
218.857	8075.95
218.931	8092.3
219.004	8101.58
219.077	8117.8
219.151	8143
219.224	8137.56
219.298	8135.3
219.371	8184.62
219.444	8143.32
219.518	8155.2
219.591	8172.66
219.665	8280.26
219.738	8294.35
219.811	8283.96
219.885	8326.26
219.958	8359.75
220.031	8364.56
220.105	8383.18
220.178	8385.15
220.251	8364.17
220.325	8389.63
220.398	8408.78
220.471	8429.46
220.544	8468.06
220.618	8439.56
220.691	8464.68
220.764	8478.44
220.838	8503.56
220.911	8483.39
220.984	8574.94
221.057	8615.07
221.131	8640.82
221.204	8543.9
221.277	8623.13
221.35	8747.12
221.424	8740.38
221.497	8753.23
221.57	8777.09
221.643	8808.34
221.716	8858.89
221.79	8862.88
221.863	8873.52
221.936	8877.57
222.009	8895.46
222.082	8928.25
222.155	8939.03
222.229	9004.47
222.302	9039.46
222.375	9048.03
222.448	9093.14
222.521	9094.92
222.594	9093.33
222.667	9057.01
222.74	9109.91
222.814	9099.74
222.887	9082.26
222.96	9136.04
223.033	9180.2
223.106	9211.19
223.179	9243.46
223.252	9255.07
223.325	9286.31
223.398	9307.94
223.471	9337.69
223.544	9365.51
223.617	9373.5
223.69	9398.01
223.763	9357.99
223.837	9377.06
223.91	9407.2
223.983	9357.09
224.056	9319.73
224.129	9344.77
224.202	9410.31
224.275	9397.99
224.348	9363.94
224.42	9330.86
224.493	9269.58
224.566	9239.81
224.639	9262.1
224.712	9236.24
224.785	9220.54
224.858	9205.71
224.931	9179.08
225.004	9141.43
225.077	9131.32
225.15	9042.18
225.223	9037.56
225.296	9124.22
225.369	9066.26
225.442	9031.98
225.514	9050.22
225.587	9079.53
225.66	9081.84
225.733	9080.01
225.806	9095.71
225.879	9090.46
225.952	9055.76
226.025	9107.56
226.097	9160.45
226.17	9149.95
226.243	9084.01
226.316	9078.76
226.389	9087.37
226.461	9108.13
226.534	9124.83
226.607	9117.18
226.68	9201.84
226.753	9191.97
226.825	9106.56
226.898	9168.57
226.971	9167.17
227.044	9187.2
227.117	9190.18
227.189	9218.98
227.262	9258.47
227.335	9272.3
227.407	9263.78
227.48	9300.07
227.553	9311.34
227.626	9293.41
227.698	9295.53
227.771	9335.09
227.844	9308.85
227.916	9325.13
227.989	9289.93
228.062	9294.07
228.134	9386.68
228.207	9384.61
228.28	9385.29
228.352	9393.52
228.425	9399.2
228.498	9453.48
228.57	9430.56
228.643	9490.48
228.716	9480.75
228.788	9459.55
228.861	9455.08
228.934	9522.15
229.006	9527.93
229.079	9530
229.151	9512.03
229.224	9476.51
229.296	9502.07
229.369	9607.9
229.442	9664.65
229.514	9646.07
229.587	9688.88
229.659	9609.6
229.732	9627.03
229.804	9673.36
229.877	9765.13
229.949	9803.33
230.022	9856.05
230.094	9856.05
230.167	9841.11
230.239	9798.31
230.312	9790.65
230.384	9863.11
230.457	9859.93
230.529	9864.89
230.602	9871.54
230.674	9885.07
230.747	9927.91
230.819	9959.56
230.892	9839.34
230.964	9833.56
231.037	9860.71
231.109	9853.48
231.181	9898.03
231.254	9860.9
231.326	9844.86
231.399	9810.16
231.471	9778.66
231.544	9693.1
231.616	9747.27
231.688	9759.5
231.761	9751.42
231.833	9745.73
231.905	9659.12
231.978	9657.86
232.05	9641.35
232.122	9646.6
232.195	9621.51
232.267	9668.33
232.339	9641.06
232.412	9711.22
232.484	9682.89
232.556	9660.36
232.629	9732.54
232.701	9742.99
232.773	9753.82
232.846	9742.99
232.918	9749.54
232.99	9767.75
233.062	9812.02
233.135	9822.76
233.207	9787.6
233.279	9833.24
233.351	9865.84
233.424	9867.63
233.496	9843.55
233.568	9935.59
233.64	9896
233.713	9918.21
233.785	9911.46
233.857	9932.13
233.929	9884.64
234.001	9955.76
234.074	10027.03
234.146	9954.08
234.218	9957.5
234.29	9955.96
234.362	9941.42
234.434	9896.91
234.507	9854.04
234.579	9800.82
234.651	9782.8
234.723	9810.16
234.795	9825.77
234.867	9815.22
234.939	9877.79
235.012	9897.97
235.084	9901.92
235.156	9942.38
235.228	9916.13
235.3	9894.5
235.372	9904.86
235.444	9960.92
235.516	9883.87
235.588	9891.05
235.66	9903.09
235.732	9874.43
235.804	10077.99
235.876	10125.62
235.948	10190.66
236.02	10211.13
236.092	10223.17
236.164	10236.13
236.236	10233.86
236.308	10237.14
236.38	10263.25
236.452	10238.19
236.524	10260.98
236.596	10330.67
236.668	10361.8
236.74	10390.79
236.812	10423.55
236.884	10457.23
236.956	10472.07
237.028	10463.45
237.1	10441.63
237.172	10512.56
237.244	10591.52
237.316	10467.55
237.388	10454.64
237.46	10429.63
237.532	10489.66
237.604	10488.46
237.675	10566.61
237.747	10620.05
237.819	10609.69
237.891	10616.73
237.963	10609.98
238.035	10603.91
238.107	10482.18
238.178	10550.72
238.25	10553.61
238.322	10647.98
238.394	10600.76
238.466	10601.96
238.538	10640.74
238.609	10687.18
238.681	10632.2
238.753	10613.79
238.825	10640.35
238.897	10673.97
238.968	10765.25
239.04	10749.55
239.112	10867.11
239.184	10816.03
239.255	10815.26
239.327	10855.48
239.399	10880.44
239.471	10933.54
239.542	10974.79
239.614	11052.65
239.686	10964.94
239.758	11028.31
239.829	10991.72
239.901	11064.96
239.973	11083.61
240.044	11121.05
240.116	11132.91
240.188	11152.42
240.259	11170.01
240.331	11159.55
240.403	11195.6
240.474	11145.95
240.546	11131.98
240.618	11072.7
240.689	11081.61
240.761	11101.85
240.833	11169.71
240.904	11166.39
240.976	11164.56
241.048	11173.04
241.119	11202.83
241.191	11247.35
241.262	11313.77
241.334	11324.33
241.405	11328.33
241.477	11336.14
241.549	11344.04
241.62	11375.94
241.692	11423.75
241.763	11485.55
241.835	11509.64
241.906	11523.19
241.978	11490.51
242.049	11566.75
242.121	11629.45
242.192	11701.56
242.264	11664.11
242.335	11611.48
242.407	11663.96
242.478	11666.57
242.55	11691.53
242.621	11678.76
242.693	11681.02
242.764	11666.27
242.836	11660.73
242.907	11687.14
242.979	11712.88
243.05	11740.59
243.122	11762
243.193	11755.2
243.264	11680.06
243.336	11686.03
243.407	11733.51
243.479	11815.59
243.55	11830.44
243.622	11840.27
243.693	11831.88
243.764	11906.3
243.836	11877.44
243.907	11859.75
243.978	11872.04
244.05	11897.3
244.121	11849.34
244.192	11890.41
244.264	11839.46
244.335	11852.96
244.407	11804.76
244.478	11823.99
244.549	11815.22
244.62	11764.71
244.692	11770.78
244.763	11821.05
244.834	11807.12
244.906	11778
244.977	11803.79
245.048	11857.54
245.119	11841.25
245.191	11819.08
245.262	11747.5
245.333	11833.58
245.405	11860.62
245.476	11891.37
245.547	11908.77
245.618	11972.49
245.689	11982.9
245.761	12029.36
245.832	12036.55
245.903	12092.46
245.974	12124.66
246.045	12142.44
246.117	12235.28
246.188	12215.47
246.259	12192.05
246.33	12214.51
246.401	12226.75
246.473	12182.74
246.544	12168.08
246.615	12225.54
246.686	12234.12
246.757	12318.86
246.828	12290.8
246.899	12365.76
246.97	12331.4
247.042	12325.76
247.113	12364.8
247.184	12464.69
247.255	12458.32
247.326	12485.85
247.397	12491.25
247.468	12496.45
247.539	12510.58
247.61	12460.35
247.681	12513.18
247.752	12569.91
247.823	12538.34
247.894	12557.57
247.965	12534.68
248.037	12527.49
248.108	12468.49
248.179	12476.54
248.25	12463.82
248.321	12501.8
248.392	12447.33
248.463	12536.07
248.534	12533.27
248.605	12557.18
248.675	12525.32
248.746	12549.76
248.817	12565.28
248.888	12586.2
248.959	12533.08
249.03	12561.86
249.101	12576.37
249.172	12561.91
249.243	12490.23
249.314	12560.22
249.385	12562.15
249.456	12592.42
249.527	12584.32
249.598	12611.03
249.669	12613.44
249.739	12635.51
249.81	12648.92
249.881	12606.16
249.952	12594.16
250.023	12591.84
250.094	12526.96
250.165	12492.97
250.235	12481.45
250.306	12491.53
250.377	12453.88
250.448	12483.14
250.519	12416.38
250.59	12479.96
250.66	12474.22
250.731	12552.74
250.802	12547.44
250.873	12573.95
250.944	12600.61
251.014	12589.62
251.085	12687.77
251.156	12714.95
251.227	12762
251.297	12812.91
251.368	12875.28
251.439	12922.43
251.51	12978.64
251.58	12979.12
251.651	12979.55
251.722	13035.96
251.792	12979.8
251.863	12983.12
251.934	13046.46
252.005	13155.89
252.075	13162.06
252.146	13214.84
252.217	13255.77
252.287	13303.74
252.358	13305.86
252.429	13378.46
252.499	13375.47
252.57	13382.36
252.641	13432.59
252.711	13440.69
252.782	13402.99
252.852	13478.05
252.923	13480.46
252.994	13493.24
253.064	13538.84
253.135	13513.82
253.205	13494.87
253.276	13586.17
253.347	13658.87
253.417	13636.26
253.488	13614.71
253.558	13599.96
253.629	13604.06
253.699	13628.79
253.77	13652.79
253.841	13648.07
253.911	13652.41
253.982	13670.58
254.052	13704.76
254.123	13714.64
254.193	13712.86
254.264	13849.9
254.334	13811.14
254.405	13769.64
254.475	13746.21
254.546	13760.67
254.616	13831.2
254.687	13862.39
254.757	13877.96
254.827	13873.81
254.898	13892.37
254.968	13911.41
255.039	13889.43
255.109	13920.43
255.18	13879.16
255.25	13810.18
255.321	13839.3
255.391	13805.55
255.461	13894.35
255.532	13799.91
255.602	13783.04
255.673	13723.12
255.743	13677.62
255.813	13603.96
255.884	13656.31
255.954	13680.22
256.024	13744.67
256.095	13748
256.165	13712.86
256.235	13728.77
256.306	13716.57
256.376	13768.58
256.446	13800.64
256.517	13846
256.587	13893.82
256.657	13918.6
256.728	13950.03
256.798	13973.32
256.868	13964.59
256.938	13926.17
257.009	13974.47
257.079	14015.3
257.149	14125.31
257.219	14067.66
257.29	14116.15
257.36	14058.69
257.43	14102.55
257.5	14031.84
257.571	14025.28
257.641	14069.1
257.711	14037.62
257.781	14072.28
257.852	14095.18
257.922	14041.14
257.992	14042.92
258.062	14034.97
258.132	14084.24
258.202	14079.7
258.273	14076.96
258.343	14155.53
258.413	14149.7
258.483	14158.33
258.553	14124.68
258.623	14095.56
258.693	14118.85
258.764	14183.2
258.834	14259.66
258.904	14272.62
258.974	14268
259.044	14267.85
259.114	14288.48
259.184	14314.13
259.254	14328.49
259.324	14269.44
259.394	14315.34
259.464	14399.31
259.535	14405.86
259.605	14394.82
259.675	14392.08
259.745	14437.2
259.815	14409.91
259.885	14410.68
259.955	14530.8
260.025	14523.04
260.095	14538.32
260.165	14577.03
260.235	14643.59
260.305	14622.04
260.375	14589.99
260.445	14680.76
260.515	14754.46
260.585	14803.49
260.655	14823.01
260.725	14861.14
260.795	14899.17
260.865	14974.9
260.934	14938.17
261.004	14973.07
261.074	14981.41
261.144	15041.81
261.214	15076.37
261.284	15082.39
261.354	15123.8
261.424	15078.3
261.494	15152.16
261.564	15156.83
261.634	15186.14
261.703	15113.98
261.773	15145.07
261.843	15184.36
261.913	15178.28
261.983	15118.42
262.053	15141.21
262.123	15133.16
262.192	15096.77
262.262	15136.87
262.332	15076.24
262.402	15106.32
262.472	15115.33
262.541	15055.55
262.611	15105.97
262.681	15077.1
262.751	15127.09
262.821	15129.21
262.89	15093.73
262.96	15119.13
