Data from 20250701_urea_2M_exp3_MAYP1162681_22-19-50-990.txt Node
Date: Tue Jul 01 22:19:50 BST 2025
User: adleo
Spectrometer: MAYP116268
Trigger mode: 0
Integration Time (sec): 4.000000E0
Scans to average: 1
Electric dark correction enabled: true
Nonlinearity correction enabled: true
Boxcar width: 10
XAxis mode: Wavelengths
Number of Pixels in Spectrum: 2068
>>>>>Begin Spectral Data<<<<<
179.565	3827.07
179.642	4027.8
179.718	4181.84
179.795	4315.03
179.871	4433.21
179.948	4495.76
180.024	4574.24
180.101	4652.83
180.177	4708.74
180.254	4794.62
180.33	4873.28
180.407	5152.24
180.483	5446.92
180.56	5747.64
180.636	6021.98
180.712	5980.26
180.789	6011.3
180.865	6053.74
180.942	6083.48
181.018	6124.79
181.095	6166.95
181.171	6183.27
181.248	6182.83
181.324	6238.63
181.4	6266.52
181.477	6302
181.553	6350.98
181.63	6415.84
181.706	6472.84
181.782	6503.02
181.859	6497.93
181.935	6515.89
182.011	6498.46
182.088	6555.17
182.164	6631.24
182.24	6681.83
182.317	6714.86
182.393	6712.89
182.469	6764.66
182.546	6814.8
182.622	6830.07
182.698	6816.62
182.775	6862.49
182.851	6914.84
182.927	6892.02
183.003	6880.26
183.08	6863.64
183.156	6897.46
183.232	6887.56
183.308	6845.58
183.385	6867.1
183.461	6930.22
183.537	6933.92
183.613	6985.52
183.69	6956.45
183.766	6915.11
183.842	6941.1
183.918	6955.76
183.995	6997.26
184.071	7004.57
184.147	6987.75
184.223	6950.73
184.299	6991.87
184.375	6951.33
184.452	6979.02
184.528	7107.3
184.604	7147.75
184.68	7188.92
184.756	7208.43
184.832	7223.09
184.908	7245.37
184.985	7246.14
185.061	7187.14
185.137	7222.89
185.213	7180.42
185.289	7189.02
185.365	7159.86
185.441	7156.74
185.517	7207.61
185.593	7193.53
185.669	7187.81
185.745	7222.8
185.822	7281.58
185.898	7249.91
185.974	7287.03
186.05	7256.74
186.126	7175.03
186.202	7145.73
186.278	7132.13
186.354	7099.83
186.43	7128.25
186.506	7124.69
186.582	7122.19
186.658	7145.53
186.734	7071.41
186.81	7079.82
186.886	7091.15
186.962	7135.74
187.038	7115.8
187.114	7082.61
187.19	7115.87
187.266	7083.98
187.341	7080.27
187.417	7053.56
187.493	7060.77
187.569	7070.14
187.645	7047.32
187.721	7012.04
187.797	7040.14
187.873	7049.99
187.949	7033.61
188.025	7011.26
188.101	7018.32
188.176	7039.74
188.252	7026.73
188.328	7056.54
188.404	7056.4
188.48	7036.13
188.556	7012.63
188.632	7020.07
188.707	7024.59
188.783	7006.66
188.859	6987.41
188.935	6949.55
189.011	6974.1
189.086	6948.49
189.162	6919.33
189.238	6905.64
189.314	6893.1
189.39	6872.35
189.465	6849.09
189.541	6907.24
189.617	6853.44
189.693	6835.05
189.768	6845
189.844	6926.96
189.92	6897.72
189.996	6921.6
190.071	6963.26
190.147	6955.96
190.223	6980.32
190.298	6948.27
190.374	6908.88
190.45	6951.86
190.526	6983.91
190.601	6968.96
190.677	6978.47
190.753	7069.54
190.828	7089.18
190.904	7148.11
190.98	7204.3
191.055	7243.22
191.131	7210.01
191.207	7282.22
191.282	7313.73
191.358	7281.73
191.433	7227.73
191.509	7276.13
191.585	7274.35
191.66	7271.23
191.736	7303.76
191.811	7275.4
191.887	7332.8
191.963	7412.68
192.038	7424.17
192.114	7429.22
192.189	7442.72
192.265	7434.22
192.34	7359.53
192.416	7349.54
192.491	7333.86
192.567	7337.9
192.642	7348.29
192.718	7352.23
192.793	7308.68
192.869	7299.12
192.944	7308.82
193.02	7344.74
193.095	7358.15
193.171	7374.63
193.246	7377.57
193.322	7360.99
193.397	7359.26
193.473	7313.96
193.548	7254.54
193.624	7275.98
193.699	7271.42
193.775	7321.76
193.85	7315.14
193.925	7348.31
194.001	7352.63
194.076	7323.5
194.152	7285.66
194.227	7257.88
194.302	7222.09
194.378	7238.43
194.453	7224.5
194.529	7265.55
194.604	7211.81
194.679	7188.36
194.755	7123.18
194.83	7164.1
194.905	7160.31
194.981	7200.49
195.056	7175.7
195.131	7200.64
195.207	7199.15
195.282	7161.39
195.357	7098.02
195.433	7159.72
195.508	7115.88
195.583	7140.91
195.659	7187.83
195.734	7211.1
195.809	7208.22
195.884	7238.52
195.96	7242.22
196.035	7293.31
196.11	7277.58
196.185	7320.41
196.261	7331.12
196.336	7439.35
196.411	7388.43
196.486	7406.21
196.561	7377.22
196.637	7407.01
196.712	7459.63
196.787	7469.73
196.862	7527.93
196.937	7564.31
197.013	7581.1
197.088	7619.26
197.163	7690.35
197.238	7753.35
197.313	7752.24
197.388	7799.65
197.464	7907.26
197.539	7942.89
197.614	7925.88
197.689	7967.14
197.764	8024.64
197.839	8091.87
197.914	8069.88
197.989	8149.4
198.065	8194.27
198.14	8367.74
198.215	8458.04
198.29	8499.68
198.365	8540.19
198.44	8575.22
198.515	8669.89
198.59	8724.42
198.665	8813.88
198.74	8843.25
198.815	8842.05
198.89	8921.25
198.965	9025.25
199.04	9012.64
199.115	9063.56
199.19	9205.73
199.265	9217.09
199.34	9246.17
199.415	9370.1
199.49	9448.22
199.565	9474.94
199.64	9565.17
199.715	9551.87
199.79	9580.09
199.865	9597.91
199.94	9598.63
200.015	9709.21
200.09	9724.53
200.165	9747.74
200.24	9768.69
200.315	9898.65
200.39	9951.34
200.464	9973.83
200.539	9977.83
200.614	10026.9
200.689	10110.96
200.764	10135.44
200.839	10195.57
200.914	10213.1
200.989	10166.9
201.063	10216.71
201.138	10161.59
201.213	10153.93
201.288	10092.61
201.363	10113.76
201.438	10115.35
201.512	10169.33
201.587	10107.42
201.662	10125.59
201.737	10163.4
201.812	10193.99
201.886	10089.91
201.961	10126.14
202.036	10085.11
202.111	10077.69
202.186	9983.1
202.26	9923.45
202.335	9850.95
202.41	9828.03
202.485	9765.73
202.559	9702.4
202.634	9601.41
202.709	9633.46
202.784	9577.12
202.858	9576.3
202.933	9507.73
203.008	9478.45
203.082	9406.42
203.157	9404.3
203.232	9249.67
203.306	9177.66
203.381	9064.41
203.456	8985.4
203.53	8902.2
203.605	8833.6
203.68	8749.52
203.754	8724.42
203.829	8667.03
203.904	8596.29
203.978	8554.8
204.053	8571.88
204.127	8531.46
204.202	8534.5
204.277	8471.13
204.351	8443.89
204.426	8418.04
204.5	8387
204.575	8270.95
204.65	8309.21
204.724	8280.42
204.799	8312.53
204.873	8296.7
204.948	8296.46
205.022	8248.51
205.097	8218.18
205.171	8267.87
205.246	8293.76
205.32	8289.53
205.395	8290.06
205.469	8259.2
205.544	8279.41
205.618	8216.82
205.693	8253.05
205.767	8207.98
205.842	8288.19
205.916	8264.96
205.991	8225.27
206.065	8248.27
206.14	8299.89
206.214	8280.78
206.289	8254.35
206.363	8296.26
206.438	8307.09
206.512	8323.74
206.586	8392.18
206.661	8422.32
206.735	8345.38
206.81	8354.48
206.884	8408.21
206.958	8363.82
207.033	8422.58
207.107	8444.39
207.181	8556.3
207.256	8537.63
207.33	8603.45
207.405	8638.32
207.479	8699.86
207.553	8730.55
207.628	8663.47
207.702	8707.73
207.776	8688.19
207.851	8698.01
207.925	8749.77
207.999	8734.89
208.073	8733.55
208.148	8742.21
208.222	8704.61
208.296	8814
208.371	8860.04
208.445	8895.62
208.519	8995.04
208.593	9034.51
208.668	9019.15
208.742	9024.59
208.816	9026.37
208.89	9075.93
208.965	9071.59
209.039	9102.12
209.113	9159.65
209.187	9237.72
209.261	9218.08
209.336	9281.1
209.41	9350.06
209.484	9353.62
209.558	9432.83
209.632	9476.98
209.707	9517.24
209.781	9586.14
209.855	9638.3
209.929	9695.21
210.003	9716.02
210.077	9711.97
210.151	9879.56
210.226	10007.66
210.3	10101.44
210.374	10182.81
210.448	10190.91
210.522	10226.22
210.596	10264.23
210.67	10296.36
210.744	10457.95
210.818	10578.3
210.892	10655.39
210.966	10630.1
211.041	10681.85
211.115	10671.58
211.189	10746.5
211.263	10802.87
211.337	10824.11
211.411	10878.86
211.485	10863.29
211.559	10900.58
211.633	10913.39
211.707	10801.86
211.781	10817.82
211.855	10691.72
211.929	10660.85
212.003	10596.79
212.077	10630
212.151	10666.67
212.225	10698.71
212.299	10659.72
212.373	10614.91
212.447	10590.82
212.52	10693.68
212.594	10700.91
212.668	10734.25
212.742	10683.28
212.816	10660.53
212.89	10635.53
212.964	10620.93
213.038	10627.96
213.112	10662.27
213.186	10710.45
213.26	10624.78
213.333	10466.81
213.407	10478.56
213.481	10486.27
213.555	10523.49
213.629	10474.72
213.703	10410.54
213.777	10400.37
213.85	10327.23
213.924	10428.91
213.998	10424.52
214.072	10389.34
214.146	10330.47
214.219	10309.89
214.293	10285.13
214.367	10276.17
214.441	10306.96
214.515	10255.45
214.588	10155.49
214.662	10031.6
214.736	9941.87
214.81	9962.95
214.883	9982.31
214.957	9930.79
215.031	9867.58
215.105	9769.36
215.178	9700.25
215.252	9660.8
215.326	9550.61
215.4	9460.99
215.473	9275.39
215.547	9186.67
215.621	9118.7
215.694	9110.75
215.768	9011.95
215.842	8946.63
215.915	8872.47
215.989	8752.15
216.063	8694.45
216.136	8675.15
216.21	8644.88
216.284	8657.45
216.357	8626.6
216.431	8574.76
216.504	8571.83
216.578	8632.34
216.652	8634.79
216.725	8609.91
216.799	8611.98
216.873	8590.18
216.946	8600
217.02	8555.81
217.093	8514.81
217.167	8412.17
217.24	8330.15
217.314	8286.01
217.387	8239.9
217.461	8195.54
217.535	8216.71
217.608	8146.86
217.682	8117.99
217.755	8137.09
217.829	8076.5
217.902	8060.62
217.976	8039.75
218.049	7989.87
218.123	7909.25
218.196	7913.63
218.27	7876.83
218.343	7804.75
218.417	7801
218.49	7771.37
218.563	7816.24
218.637	7827.83
218.71	7901.96
218.784	7925.97
218.857	7966.31
218.931	7992.32
219.004	8001.89
219.077	8018.35
219.151	8041.62
219.224	8030.85
219.298	8017.38
219.371	8067.56
219.444	8023.04
219.518	8041.08
219.591	8059.4
219.665	8170.21
219.738	8181.18
219.811	8168.06
219.885	8210.29
219.958	8244.07
220.031	8247.1
220.105	8268.37
220.178	8276.21
220.251	8249.93
220.325	8277.37
220.398	8290.12
220.471	8312.24
220.544	8343.52
220.618	8318.63
220.691	8345.72
220.764	8364.24
220.838	8396.24
220.911	8371.84
220.984	8463.04
221.057	8493.64
221.131	8519.67
221.204	8419.34
221.277	8493.36
221.35	8620.61
221.424	8619.8
221.497	8633.95
221.57	8667.95
221.643	8704.35
221.716	8749.12
221.79	8748.92
221.863	8760.58
221.936	8772.37
222.009	8784.39
222.082	8818.72
222.155	8833.25
222.229	8900.95
222.302	8931.41
222.375	8934.11
222.448	8975.17
222.521	8980.61
222.594	8987.83
222.667	8960.36
222.74	9010.56
222.814	9003.04
222.887	8979.3
222.96	9030.91
223.033	9073.91
223.106	9095.47
223.179	9120.9
223.252	9137.18
223.325	9174.72
223.398	9181.8
223.471	9213.23
223.544	9237.92
223.617	9251.99
223.69	9273.74
223.763	9236.9
223.837	9262.95
223.91	9295.16
223.983	9247.94
224.056	9212.71
224.129	9235.48
224.202	9292.79
224.275	9283.79
224.348	9251.29
224.42	9220.81
224.493	9167.42
224.566	9142.09
224.639	9158.94
224.712	9131.01
224.785	9109.48
224.858	9096.19
224.931	9080.5
225.004	9037.32
225.077	9032.21
225.15	8939.9
225.223	8937.54
225.296	9014.95
225.369	8958.73
225.442	8920.5
225.514	8937.63
225.587	8961.41
225.66	8963.19
225.733	8965.45
225.806	8982.45
225.879	8980.91
225.952	8946.45
226.025	8982.7
226.097	9035.2
226.17	9027.35
226.243	8965.22
226.316	8965.17
226.389	8973.35
226.461	8993.58
226.534	9015.76
226.607	9008.4
226.68	9092.38
226.753	9089.49
226.825	9006.26
226.898	9062.05
226.971	9069.6
227.044	9087.61
227.117	9090.78
227.189	9109.66
227.262	9146.12
227.335	9152.43
227.407	9140.39
227.48	9172.54
227.553	9192.33
227.626	9167.04
227.698	9167.96
227.771	9203.37
227.844	9185.99
227.916	9204
227.989	9165.92
228.062	9158.94
228.134	9246.44
228.207	9236.28
228.28	9227.28
228.352	9237.77
228.425	9246.01
228.498	9293.3
228.57	9273.27
228.643	9335.11
228.716	9334.53
228.788	9319.99
228.861	9319.12
228.934	9391
229.006	9399.86
229.079	9399.48
229.151	9388.59
229.224	9360
229.296	9386.53
229.369	9492.26
229.442	9540.53
229.514	9522.1
229.587	9568.99
229.659	9490.78
229.732	9515.77
229.804	9555.88
229.877	9635.36
229.949	9665.08
230.022	9717.21
230.094	9723.9
230.167	9714.51
230.239	9669.68
230.312	9655.57
230.384	9729.33
230.457	9723.79
230.529	9729.09
230.602	9730.82
230.674	9740.84
230.747	9786.18
230.819	9819.66
230.892	9693.47
230.964	9688.51
231.037	9717.62
231.109	9708.38
231.181	9748.2
231.254	9708.71
231.326	9691.18
231.399	9666.08
231.471	9634.29
231.544	9554.41
231.616	9597.8
231.688	9600.64
231.761	9591.59
231.833	9583.31
231.905	9497.61
231.978	9493.08
232.05	9484.71
232.122	9489.09
232.195	9463.28
232.267	9501.33
232.339	9474.55
232.412	9543.78
232.484	9522.25
232.556	9493.76
232.629	9562.89
232.701	9583.36
232.773	9599.01
232.846	9595.25
232.918	9602.05
232.99	9624.35
233.062	9664.37
233.135	9678.53
233.207	9641.11
233.279	9685.69
233.351	9719.93
233.424	9723.11
233.496	9701.39
233.568	9784.86
233.64	9750.91
233.713	9773.11
233.785	9766.08
233.857	9793
233.929	9738.64
234.001	9815.39
234.074	9888.53
234.146	9814.19
234.218	9809.71
234.29	9807.26
234.362	9790.41
234.434	9744.55
234.507	9705.78
234.579	9652.37
234.651	9629.39
234.723	9668.31
234.795	9688.16
234.867	9679.63
234.939	9740.9
235.012	9758.77
235.084	9757.99
235.156	9797.15
235.228	9775.96
235.3	9760.21
235.372	9761.22
235.444	9821.41
235.516	9733.38
235.588	9742.05
235.66	9767.92
235.732	9741.52
235.804	9944.55
235.876	9991.54
235.948	10061.64
236.02	10081.87
236.092	10099.44
236.164	10118.32
236.236	10108.4
236.308	10104.93
236.38	10134.65
236.452	10107
236.524	10128.43
236.596	10198.02
236.668	10226.21
236.74	10249.71
236.812	10283.86
236.884	10318.7
236.956	10332.33
237.028	10322.03
237.1	10300.11
237.172	10371.37
237.244	10449.04
237.316	10327.71
237.388	10314.76
237.46	10281.94
237.532	10344.72
237.604	10336.34
237.675	10415.27
237.747	10466.48
237.819	10458.87
237.891	10464.03
237.963	10461.19
238.035	10454.59
238.107	10335.32
238.178	10400.72
238.25	10407.42
238.322	10500.14
238.394	10456.01
238.466	10464.49
238.538	10515.26
238.609	10563.53
238.681	10499.2
238.753	10475.25
238.825	10504.99
238.897	10537.45
238.968	10631.82
239.04	10613.99
239.112	10731.98
239.184	10691.01
239.255	10678.24
239.327	10711.96
239.399	10731.14
239.471	10783.46
239.542	10827.16
239.614	10901.6
239.686	10817.75
239.758	10873.31
239.829	10833.4
239.901	10893.14
239.973	10901.58
240.044	10932.75
240.116	10944.12
240.188	10968.02
240.259	10989.75
240.331	10967.49
240.403	11001.26
240.474	10950.8
240.546	10938.22
240.618	10868.35
240.689	10859.39
240.761	10888.78
240.833	10959.34
240.904	10964.78
240.976	10961.75
241.048	10971.24
241.119	11015.39
241.191	11063.04
241.262	11135.3
241.334	11142.04
241.405	11150.38
241.477	11155.34
241.549	11163.3
241.62	11193.61
241.692	11238.76
241.763	11299.69
241.835	11327.45
241.906	11344.46
241.978	11311.07
242.049	11381.23
242.121	11451.73
242.192	11522.09
242.264	11486.34
242.335	11427.93
242.407	11475.35
242.478	11477.71
242.55	11504.6
242.621	11480.07
242.693	11481.71
242.764	11474.09
242.836	11469.42
242.907	11504.6
242.979	11536.99
243.05	11563.78
243.122	11582.49
243.193	11578.39
243.264	11502.62
243.336	11503.97
243.407	11545.09
243.479	11628.71
243.55	11643.94
243.622	11658.25
243.693	11661.43
243.764	11728.71
243.836	11714.07
243.907	11701.58
243.978	11708.67
244.05	11734.17
244.121	11689.06
244.192	11730.31
244.264	11673.87
244.335	11689.92
244.407	11643.51
244.478	11662.55
244.549	11654.06
244.62	11608.9
244.692	11615.84
244.763	11661.87
244.834	11651.89
244.906	11632.61
244.977	11654.59
245.048	11714.56
245.119	11694.61
245.191	11667.66
245.262	11611.66
245.333	11686.93
245.405	11708.33
245.476	11735.47
245.547	11751.18
245.618	11807.18
245.689	11821.69
245.761	11861.99
245.832	11871.82
245.903	11916.84
245.974	11944.31
246.045	11961.57
246.117	12048.42
246.188	12021.68
246.259	12003.07
246.33	12024.71
246.401	12034.11
246.473	11994.44
246.544	11971.16
246.615	12031.46
246.686	12041.34
246.757	12108.67
246.828	12090.02
246.899	12162.23
246.97	12136.64
247.042	12127.33
247.113	12170.77
247.184	12260.91
247.255	12265.15
247.326	12287.86
247.397	12296.44
247.468	12309.55
247.539	12319.77
247.61	12276.62
247.681	12326.85
247.752	12388.74
247.823	12359.14
247.894	12372.93
247.965	12345.55
248.037	12340.92
248.108	12282.6
248.179	12289.64
248.25	12287.51
248.321	12317.3
248.392	12267.84
248.463	12350.6
248.534	12349.35
248.605	12367.28
248.675	12339.23
248.746	12348.87
248.817	12367.19
248.888	12380.78
248.959	12324
249.03	12351.67
249.101	12362.61
249.172	12352.34
249.243	12279.99
249.314	12351.24
249.385	12355.04
249.456	12392.64
249.527	12388.93
249.598	12413.61
249.669	12408.79
249.739	12421.03
249.81	12435.01
249.881	12387.68
249.952	12378.95
250.023	12372.59
250.094	12325.73
250.165	12290.06
250.235	12284.56
250.306	12291.41
250.377	12262.01
250.448	12292.32
250.519	12225.66
250.59	12287.07
250.66	12283.7
250.731	12358.51
250.802	12351.85
250.873	12379.67
250.944	12400.59
251.014	12387.09
251.085	12480.37
251.156	12511.8
251.227	12566.41
251.297	12626.48
251.368	12685.38
251.439	12729.39
251.51	12785.51
251.58	12765.55
251.651	12763.96
251.722	12821.71
251.792	12769.17
251.863	12776.11
251.934	12836.94
252.005	12951.14
252.075	12954.99
252.146	13004.4
252.217	13053.72
252.287	13102.6
252.358	13107.42
252.429	13173.51
252.499	13164.69
252.57	13178.04
252.641	13232.08
252.711	13242.11
252.782	13191.54
252.852	13267.66
252.923	13261.63
252.994	13275.42
253.064	13335.05
253.135	13320.44
253.205	13297.45
253.276	13372.65
253.347	13438.74
253.417	13413.67
253.488	13403.74
253.558	13386.82
253.629	13386.38
253.699	13397.71
253.77	13413.33
253.841	13404.99
253.911	13421.67
253.982	13443.31
254.052	13476.48
254.123	13476.62
254.193	13471.08
254.264	13608.7
254.334	13575.15
254.405	13548.98
254.475	13518.66
254.546	13525.11
254.616	13588.46
254.687	13618.54
254.757	13646.16
254.827	13652.28
254.898	13673.74
254.968	13678.17
255.039	13667.37
255.109	13709.46
255.18	13680.19
255.25	13617.33
255.321	13654.5
255.391	13614.25
255.461	13692.92
255.532	13602.87
255.602	13598.97
255.673	13552.02
255.743	13516.25
255.813	13440.9
255.884	13489.54
255.954	13523.96
256.024	13589.14
256.095	13590.78
256.165	13561.66
256.235	13582.82
256.306	13562.91
256.376	13620.04
256.446	13652.43
256.517	13684.35
256.587	13726.38
256.657	13742.1
256.728	13765.33
256.798	13771.45
256.868	13771.79
256.938	13743.25
257.009	13786.88
257.079	13816.38
257.149	13911.97
257.219	13848.63
257.29	13890.52
257.36	13834.17
257.43	13877.8
257.5	13813.01
257.571	13800.42
257.641	13831.13
257.711	13791.46
257.781	13823.42
257.852	13831.32
257.922	13769.43
257.992	13777
258.062	13777.53
258.132	13820.91
258.202	13824.77
258.273	13832.58
258.343	13899.25
258.413	13886.81
258.483	13894.71
258.553	13868.15
258.623	13840.29
258.693	13869.99
258.764	13937.14
258.834	14009.54
258.904	14027.72
258.974	14011.81
259.044	14027.23
259.114	14064.16
259.184	14096.99
259.254	14103.3
259.324	14054.23
259.394	14113.23
259.464	14187.08
259.535	14186.84
259.605	14178.41
259.675	14175.37
259.745	14221.89
259.815	14203.28
259.885	14206.41
259.955	14319.49
260.025	14310.38
260.095	14327.64
260.165	14359.26
260.235	14423.52
260.305	14404.19
260.375	14368.66
260.445	14463.67
260.515	14515.3
260.585	14560.52
260.655	14564.32
260.725	14609.73
260.795	14651.77
260.865	14717.52
260.934	14682.18
261.004	14714
261.074	14719.64
261.144	14782.5
261.214	14813.69
261.284	14809.16
261.354	14851.43
261.424	14810.61
261.494	14889.04
261.564	14890.68
261.634	14921.48
261.703	14855.54
261.773	14881.33
261.843	14915.7
261.913	14909.87
261.983	14863.78
262.053	14883.06
262.123	14889.23
262.192	14847.78
262.262	14878.58
262.332	14824.64
262.402	14860.07
262.472	14875.01
262.541	14826.28
262.611	14872.5
262.681	14844.45
262.751	14885.37
262.821	14891.83
262.89	14858
262.96	14877.57
263.03	14959.99
