Data from 20250701_urea_2M_exp3_MAYP1162681_05-29-48-902.txt Node
Date: Wed Jul 02 05:29:48 BST 2025
User: adleo
Spectrometer: MAYP116268
Trigger mode: 0
Integration Time (sec): 4.000000E0
Scans to average: 1
Electric dark correction enabled: true
Nonlinearity correction enabled: true
Boxcar width: 10
XAxis mode: Wavelengths
Number of Pixels in Spectrum: 2068
>>>>>Begin Spectral Data<<<<<
179.565	3570.16
179.642	3757.65
179.718	3910.49
179.795	4039.12
179.871	4149.53
179.948	4207.7
180.024	4279.21
180.101	4357.65
180.177	4411.2
180.254	4492.73
180.33	4569.32
180.407	4828.25
180.483	5106.04
180.56	5389.58
180.636	5643.7
180.712	5604.93
180.789	5636.34
180.865	5675.68
180.942	5706.4
181.018	5744.72
181.095	5791.84
181.171	5811.31
181.248	5814.67
181.324	5866.55
181.4	5892.12
181.477	5925.95
181.553	5971.87
181.63	6037.52
181.706	6091.22
181.782	6118.79
181.859	6112.94
181.935	6128.01
182.011	6113.33
182.088	6166.89
182.164	6230.9
182.24	6282.22
182.317	6304.44
182.393	6300.74
182.469	6346.43
182.546	6392.41
182.622	6411.08
182.698	6398.7
182.775	6434.79
182.851	6478.62
182.927	6447.75
183.003	6432.2
183.08	6416.46
183.156	6449.49
183.232	6443.58
183.308	6401.67
183.385	6421.25
183.461	6476.75
183.537	6478.58
183.613	6522.79
183.69	6492.07
183.766	6456.52
183.842	6477.79
183.918	6500.59
183.995	6543.46
184.071	6563.01
184.147	6549.14
184.223	6512.72
184.299	6555.95
184.375	6517.07
184.452	6545.03
184.528	6671.17
184.604	6706.3
184.68	6747.02
184.756	6767.34
184.832	6778.77
184.908	6793.6
184.985	6794.94
185.061	6747.45
185.137	6776.7
185.213	6739.88
185.289	6749.95
185.365	6728.26
185.441	6727.82
185.517	6773.53
185.593	6763.25
185.669	6749.46
185.745	6779.53
185.822	6836.36
185.898	6804.03
185.974	6840.55
186.05	6814.08
186.126	6737.31
186.202	6714.12
186.278	6699.67
186.354	6668.54
186.43	6689.01
186.506	6687.23
186.582	6684.02
186.658	6704.66
186.734	6642.11
186.81	6649.4
186.886	6657.71
186.962	6698.91
187.038	6683.35
187.114	6653.93
187.19	6679.97
187.266	6653.56
187.341	6652.07
187.417	6625.23
187.493	6626.24
187.569	6634.35
187.645	6611.88
187.721	6575.04
187.797	6605.38
187.873	6621.9
187.949	6602.51
188.025	6583.58
188.101	6591.55
188.176	6614.45
188.252	6596.88
188.328	6621.45
188.404	6626.15
188.48	6609.69
188.556	6583.32
188.632	6580.44
188.707	6581.4
188.783	6568.95
188.859	6546.65
188.935	6510.82
189.011	6537.66
189.086	6522.73
189.162	6494.64
189.238	6484.41
189.314	6477.02
189.39	6456.23
189.465	6424.34
189.541	6475.92
189.617	6423.21
189.693	6405.88
189.768	6413.96
189.844	6497.51
189.92	6468.72
189.996	6493.5
190.071	6533.74
190.147	6528.17
190.223	6558.1
190.298	6535.43
190.374	6493.03
190.45	6535.12
190.526	6565.42
190.601	6547.8
190.677	6544.97
190.753	6635.22
190.828	6650.43
190.904	6697.74
190.98	6751.26
191.055	6793.86
191.131	6772.34
191.207	6845.33
191.282	6878.45
191.358	6844.36
191.433	6797.1
191.509	6841.3
191.585	6832.51
191.66	6827.75
191.736	6857.96
191.811	6828.13
191.887	6878.39
191.963	6953.47
192.038	6971.05
192.114	6972.73
192.189	6982
192.265	6974.27
192.34	6902.03
192.416	6893.43
192.491	6881.71
192.567	6879.69
192.642	6882.38
192.718	6884.01
192.793	6839.53
192.869	6827.33
192.944	6838.61
193.02	6864.13
193.095	6880.51
193.171	6895.64
193.246	6900.3
193.322	6887.57
193.397	6888.97
193.473	6847.25
193.548	6791.32
193.624	6811.65
193.699	6806.03
193.775	6858.8
193.85	6864.27
193.925	6895.84
194.001	6901.17
194.076	6876.19
194.152	6849.52
194.227	6825.06
194.302	6786.95
194.378	6800.92
194.453	6789.69
194.529	6828.65
194.604	6776.43
194.679	6753.33
194.755	6691.79
194.83	6730.77
194.905	6727.75
194.981	6761.71
195.056	6737.42
195.131	6757.25
195.207	6746.1
195.282	6715.65
195.357	6653.76
195.433	6703.32
195.508	6666.48
195.583	6687.32
195.659	6737.86
195.734	6754.25
195.809	6751.65
195.884	6785.4
195.96	6789.43
196.035	6839.19
196.11	6824.77
196.185	6860.65
196.261	6875.15
196.336	6983.95
196.411	6934.54
196.486	6950.25
196.561	6925.17
196.637	6955.95
196.712	7007.34
196.787	7019.02
196.862	7065.03
196.937	7097.41
197.013	7119.18
197.088	7153.05
197.163	7228.82
197.238	7285.25
197.313	7284.34
197.388	7332.73
197.464	7432.51
197.539	7468.65
197.614	7449.23
197.689	7490.38
197.764	7549.96
197.839	7613.89
197.914	7587.73
197.989	7662.35
198.065	7706.38
198.14	7878.44
198.215	7962.98
198.29	8002.91
198.365	8043.02
198.44	8084.38
198.515	8180.59
198.59	8229.61
198.665	8312.16
198.74	8335.6
198.815	8338.92
198.89	8416.5
198.965	8513.29
199.04	8499.62
199.115	8552.15
199.19	8687.92
199.265	8699.94
199.34	8731.9
199.415	8843.36
199.49	8917.07
199.565	8944.79
199.64	9025.79
199.715	9007.39
199.79	9026.26
199.865	9042.29
199.94	9042.68
200.015	9147.54
200.09	9161.98
200.165	9176.95
200.24	9195.15
200.315	9323.63
200.39	9370.34
200.464	9394.61
200.539	9400.77
200.614	9455.27
200.689	9531.21
200.764	9551.97
200.839	9609.15
200.914	9622.78
200.989	9591.75
201.063	9640.87
201.138	9586.5
201.213	9581.97
201.288	9520.87
201.363	9542.69
201.438	9544.27
201.512	9595.54
201.587	9534.04
201.662	9541.64
201.737	9578.24
201.812	9609.4
201.886	9503.7
201.961	9530.87
202.036	9490.04
202.111	9482.43
202.186	9382.77
202.26	9326.37
202.335	9261.12
202.41	9239.94
202.485	9184.3
202.559	9113.73
202.634	9019.99
202.709	9054
202.784	8995.13
202.858	8995.95
202.933	8938.52
203.008	8920.18
203.082	8856.22
203.157	8852.94
203.232	8715.55
203.306	8655.81
203.381	8547.98
203.456	8467.76
203.53	8399.95
203.605	8331.81
203.68	8246.47
203.754	8225.71
203.829	8171.42
203.904	8105.43
203.978	8070.2
204.053	8085.45
204.127	8041.07
204.202	8033.42
204.277	7967.15
204.351	7947.52
204.426	7917.6
204.5	7881.47
204.575	7764.8
204.65	7796.8
204.724	7772.59
204.799	7795.03
204.873	7779.68
204.948	7776.41
205.022	7740.6
205.097	7704.55
205.171	7748.49
205.246	7780.97
205.32	7773.42
205.395	7774.96
205.469	7743.01
205.544	7758.07
205.618	7700.79
205.693	7742.97
205.767	7703.88
205.842	7776.65
205.916	7750.16
205.991	7725.11
206.065	7745.45
206.14	7798.58
206.214	7782.5
206.289	7754.31
206.363	7796.15
206.438	7804.23
206.512	7826.69
206.586	7888.23
206.661	7918.6
206.735	7847.66
206.81	7848.96
206.884	7900.88
206.958	7851.85
207.033	7908.13
207.107	7930.36
207.181	8028.13
207.256	8010.52
207.33	8071.06
207.405	8113.04
207.479	8180
207.553	8204.86
207.628	8146.84
207.702	8179.97
207.776	8153.81
207.851	8164.53
207.925	8216.08
207.999	8202.75
208.073	8196.26
208.148	8203.52
208.222	8161.8
208.296	8268.54
208.371	8316.97
208.445	8354.26
208.519	8451.47
208.593	8486.39
208.668	8473.01
208.742	8485.25
208.816	8486.5
208.89	8533.67
208.965	8528.81
209.039	8555.14
209.113	8613.37
209.187	8679.47
209.261	8671.72
209.336	8744.44
209.41	8813.46
209.484	8809.32
209.558	8882.73
209.632	8925.75
209.707	8969.51
209.781	9044.54
209.855	9096.5
209.929	9154.45
210.003	9172.22
210.077	9173.37
210.151	9337.26
210.226	9447.94
210.3	9536.2
210.374	9616.68
210.448	9629.54
210.522	9666.63
210.596	9700.72
210.67	9725.91
210.744	9886.24
210.818	9995.72
210.892	10055.01
210.966	10030.99
211.041	10086.62
211.115	10074.09
211.189	10153.81
211.263	10200.57
211.337	10220.76
211.411	10264.79
211.485	10249.32
211.559	10287.85
211.633	10295.07
211.707	10188.53
211.781	10211.37
211.855	10088.49
211.929	10062.92
212.003	9997.83
212.077	10029.2
212.151	10057.14
212.225	10086.05
212.299	10044.12
212.373	9997.01
212.447	9984.2
212.52	10083.24
212.594	10090.42
212.668	10123.6
212.742	10071.48
212.816	10057.12
212.89	10032.56
212.964	10022.83
213.038	10022.54
213.112	10064.89
213.186	10112.76
213.26	10031.41
213.333	9879.02
213.407	9890.86
213.481	9889.66
213.555	9926.52
213.629	9876.32
213.703	9816.5
213.777	9804.74
213.85	9733.6
213.924	9835.73
213.998	9824.12
214.072	9780.71
214.146	9727.1
214.219	9713.9
214.293	9693
214.367	9679.95
214.441	9701.48
214.515	9651.43
214.588	9563.44
214.662	9434.73
214.736	9353.74
214.81	9370.86
214.883	9383.42
214.957	9340.35
215.031	9284.82
215.105	9196.79
215.178	9131.07
215.252	9097.23
215.326	8998.97
215.4	8917.85
215.473	8739.06
215.547	8651.92
215.621	8591.96
215.694	8581.95
215.768	8477.7
215.842	8406.59
215.915	8338.71
215.989	8228.25
216.063	8168.71
216.136	8141.48
216.21	8113.63
216.284	8119.16
216.357	8092.32
216.431	8050.9
216.504	8045.8
216.578	8094.45
216.652	8102.62
216.725	8077.65
216.799	8082.8
216.873	8061.02
216.946	8071.16
217.02	8034.25
217.093	8009.14
217.167	7913.72
217.24	7835.01
217.314	7803.91
217.387	7765.81
217.461	7719.78
217.535	7741.23
217.608	7683.92
217.682	7661.99
217.755	7674.49
217.829	7621.05
217.902	7606.05
217.976	7592.3
218.049	7544.7
218.123	7474.7
218.196	7466.58
218.27	7433.7
218.343	7363.48
218.417	7362.03
218.49	7335.11
218.563	7378.23
218.637	7384.34
218.71	7453.77
218.784	7480.5
218.857	7511.31
218.931	7525.15
219.004	7533.46
219.077	7548.67
219.151	7570.73
219.224	7562.12
219.298	7552.45
219.371	7595.4
219.444	7555.81
219.518	7559.84
219.591	7575.37
219.665	7683.93
219.738	7700.85
219.811	7683.46
219.885	7727.16
219.958	7755.88
220.031	7766.93
220.105	7789.78
220.178	7797.76
220.251	7772.41
220.325	7794.3
220.398	7818.15
220.471	7839.35
220.544	7876.14
220.618	7852.19
220.691	7874.88
220.764	7895.71
220.838	7923.17
220.911	7904.79
220.984	7996.25
221.057	8032.75
221.131	8056.36
221.204	7956.5
221.277	8027.27
221.35	8147.67
221.424	8144.4
221.497	8156.62
221.57	8172.87
221.643	8200.4
221.716	8244.24
221.79	8247.12
221.863	8254
221.936	8256.51
222.009	8276.08
222.082	8301.63
222.155	8310.82
222.229	8369.15
222.302	8397.05
222.375	8406.24
222.448	8453.69
222.521	8456.43
222.594	8457.73
222.667	8428.35
222.74	8481.61
222.814	8476.21
222.887	8456.04
222.96	8505.08
223.033	8550.47
223.106	8578.42
223.179	8605.19
223.252	8612.12
223.325	8644.11
223.398	8663.18
223.471	8689.45
223.544	8713.17
223.617	8723.85
223.69	8750.07
223.763	8723.02
223.837	8743.67
223.91	8776.25
223.983	8718.37
224.056	8684.98
224.129	8703.6
224.202	8765.31
224.275	8752.41
224.348	8714.92
224.42	8684.79
224.493	8626.61
224.566	8600.23
224.639	8614.71
224.712	8589.63
224.785	8581.11
224.858	8573.26
224.931	8553.96
225.004	8522.59
225.077	8515.42
225.15	8433.49
225.223	8431.86
225.296	8509.34
225.369	8455.59
225.442	8417.72
225.514	8442.87
225.587	8460.05
225.66	8470.97
225.733	8473.04
225.806	8482.86
225.879	8480.22
225.952	8453.85
226.025	8508.18
226.097	8556.43
226.17	8552.87
226.243	8491.09
226.316	8483.73
226.389	8489.94
226.461	8508.52
226.534	8521.99
226.607	8516.6
226.68	8595.06
226.753	8588.08
226.825	8504.06
226.898	8560.69
226.971	8564.83
227.044	8581.96
227.117	8585.66
227.189	8606.12
227.262	8640.06
227.335	8659.99
227.407	8659.32
227.48	8690.59
227.553	8694.92
227.626	8674.02
227.698	8676.81
227.771	8715.29
227.844	8699.55
227.916	8718.47
227.989	8685.11
228.062	8685.26
228.134	8772.78
228.207	8773.94
228.28	8764.12
228.352	8775.19
228.425	8776.54
228.498	8821.6
228.57	8802.2
228.643	8866.67
228.716	8868.84
228.788	8852.85
228.861	8845.97
228.934	8904.59
229.006	8909.5
229.079	8915.37
229.151	8909.55
229.224	8876.78
229.296	8899.36
229.369	8994.65
229.442	9042.71
229.514	9024.77
229.587	9069.15
229.659	8989.03
229.732	9000.35
229.804	9049.87
229.877	9133.14
229.949	9166.7
230.022	9220.36
230.094	9216.95
230.167	9197.49
230.239	9147
230.312	9137.75
230.384	9202.34
230.457	9199.01
230.529	9211.19
230.602	9212.68
230.674	9220.73
230.747	9265.04
230.819	9299.27
230.892	9185.41
230.964	9179.43
231.037	9205.37
231.109	9193.67
231.181	9232.75
231.254	9199.39
231.326	9182.39
231.399	9148.43
231.471	9122.19
231.544	9043.59
231.616	9093.02
231.688	9103.57
231.761	9095.1
231.833	9082.01
231.905	8999.28
231.978	8996.68
232.05	8984.79
232.122	8984.07
232.195	8954.31
232.267	8994.57
232.339	8969.24
232.412	9039.41
232.484	9016.3
232.556	8991.62
232.629	9059.72
232.701	9077.82
232.773	9089.42
232.846	9082.64
232.918	9095.84
232.99	9109.17
233.062	9152.12
233.135	9165.65
233.207	9128.92
233.279	9179.88
233.351	9211.84
233.424	9217.91
233.496	9204.38
233.568	9281.18
233.64	9248.93
233.713	9271.12
233.785	9261.3
233.857	9280.99
233.929	9226.6
234.001	9290.23
234.074	9358.24
234.146	9289.65
234.218	9293.55
234.29	9296.3
234.362	9278.11
234.434	9226.96
234.507	9187.05
234.579	9137.75
234.651	9114.4
234.723	9144.87
234.795	9155.37
234.867	9147.23
234.939	9204.82
235.012	9217.72
235.084	9225.19
235.156	9260.91
235.228	9241.22
235.3	9230.34
235.372	9236.79
235.444	9296.48
235.516	9220.53
235.588	9225.15
235.66	9237.62
235.732	9206.22
235.804	9397.31
235.876	9445.79
235.948	9509.6
236.02	9535.79
236.092	9548.49
236.164	9562.02
236.236	9556.63
236.308	9556.24
236.38	9592.41
236.452	9573.58
236.524	9587.06
236.596	9648.69
236.668	9681.25
236.74	9705.71
236.812	9731.23
236.884	9762.01
236.956	9774.49
237.028	9768.28
237.1	9755.47
237.172	9817.99
237.244	9896.69
237.316	9780.1
237.388	9759.74
237.46	9740.13
237.532	9794.84
237.604	9783.68
237.675	9856.75
237.747	9903.38
237.819	9892.4
237.891	9890.57
237.963	9884.31
238.035	9888.45
238.107	9775.14
238.178	9835.12
238.25	9844.8
238.322	9933.32
238.394	9888.52
238.466	9887.08
238.538	9931.28
238.609	9969.23
238.681	9922.12
238.753	9902.8
238.825	9922.99
238.897	9958.48
238.968	10039.77
239.04	10022.14
239.112	10140.63
239.184	10100.16
239.255	10100.78
239.327	10136.61
239.399	10162.63
239.471	10210.6
239.542	10239.26
239.614	10314.36
239.686	10233.66
239.758	10282.65
239.829	10249.4
239.901	10321.61
239.973	10343.62
240.044	10374.36
240.116	10393
240.188	10411.01
240.259	10421.85
240.331	10413.66
240.403	10449.6
240.474	10402.9
240.546	10396.98
240.618	10332.41
240.689	10333.81
240.761	10349.47
240.833	10409.36
240.904	10408.3
240.976	10408.2
241.048	10424.34
241.119	10450.22
241.191	10495.12
241.262	10560.37
241.334	10563.74
241.405	10560.9
241.477	10557.48
241.549	10563.26
241.62	10575.69
241.692	10625.51
241.763	10684.31
241.835	10703.05
241.906	10720.35
241.978	10686.87
242.049	10754.22
242.121	10815.94
242.192	10878.49
242.264	10846.06
242.335	10807.95
242.407	10852.47
242.478	10852.61
242.55	10877.29
242.621	10858.06
242.693	10862.39
242.764	10848.17
242.836	10852.32
242.907	10881.23
242.979	10909.85
243.05	10940.84
243.122	10970.38
243.193	10964.12
243.264	10891.16
243.336	10896.27
243.407	10933.47
243.479	11016.3
243.55	11028.02
243.622	11042.18
243.693	11044.98
243.764	11109.79
243.836	11082.33
243.907	11073.37
243.978	11077.17
244.05	11101.22
244.121	11063.74
244.192	11098.48
244.264	11055.06
244.335	11063.88
244.407	11013.23
244.478	11035.21
244.549	11023.16
244.62	10979.5
244.692	10979.45
244.763	11024.41
244.834	11016.07
244.906	10984.36
244.977	10999.83
245.048	11047.17
245.119	11021.67
245.191	10996.37
245.262	10935.27
245.333	11011.4
245.405	11024.03
245.476	11055.06
245.547	11075.16
245.618	11132.5
245.689	11152.4
245.761	11187.82
245.832	11192.16
245.903	11243.82
245.974	11272.98
246.045	11284.83
246.117	11366.86
246.188	11351.97
246.259	11335.54
246.33	11347.44
246.401	11361.61
246.473	11329.07
246.544	11318.71
246.615	11379.54
246.686	11382.04
246.757	11465.26
246.828	11437.84
246.899	11511.88
246.97	11484.75
247.042	11468.84
247.113	11514.15
247.184	11592.82
247.255	11585.26
247.326	11617.36
247.397	11623.62
247.468	11625.6
247.539	11642.32
247.61	11596.58
247.681	11640
247.752	11697.4
247.823	11677.11
247.894	11698.13
247.965	11672.49
248.037	11655.91
248.108	11596.96
248.179	11604.72
248.25	11589.06
248.321	11620.38
248.392	11574.44
248.463	11655.65
248.534	11654.59
248.605	11665.97
248.675	11646.49
248.746	11667.31
248.817	11682.01
248.888	11698.55
248.959	11647.7
249.03	11669.49
249.101	11688.67
249.172	11669.15
249.243	11596.96
249.314	11657.4
249.385	11661.54
249.456	11689.73
249.527	11686.21
249.598	11716.19
249.669	11715.9
249.739	11731.37
249.81	11745.93
249.881	11701.69
249.952	11691.76
250.023	11690.17
250.094	11629.87
250.165	11590.87
250.235	11586.68
250.306	11588.22
250.377	11555.73
250.448	11578.58
250.519	11513.51
250.59	11567.11
250.66	11577.23
250.731	11650.05
250.802	11646.53
250.873	11663.64
250.944	11683.79
251.014	11679.07
251.085	11767.42
251.156	11796.97
251.227	11845.65
251.297	11896.36
251.368	11947.69
251.439	11986.35
251.51	12036.14
251.58	12028.43
251.651	12027.42
251.722	12083.87
251.792	12035.96
251.863	12049.88
251.934	12120.89
252.005	12236.13
252.075	12235.84
252.146	12279.37
252.217	12325.3
252.287	12372.11
252.358	12371.72
252.429	12454.01
252.499	12448.9
252.57	12455.55
252.641	12500.43
252.711	12507.52
252.782	12465.34
252.852	12540.49
252.923	12543.19
252.994	12561.12
253.064	12617.8
253.135	12605.51
253.205	12580.69
253.276	12655.83
253.347	12718.01
253.417	12693.48
253.488	12663.3
253.558	12654.43
253.629	12650.29
253.699	12655.64
253.77	12682.73
253.841	12688.03
253.911	12690.15
253.982	12709.96
254.052	12735.22
254.123	12746.6
254.193	12752.14
254.264	12890.73
254.334	12857.66
254.405	12824.84
254.475	12789.07
254.546	12792.25
254.616	12856.41
254.687	12887.45
254.757	12912.18
254.827	12907.8
254.898	12928.19
254.968	12944.72
255.039	12926.36
255.109	12966.99
255.18	12939.56
255.25	12869.28
255.321	12895.26
255.391	12847.88
255.461	12928.14
255.532	12851.01
255.602	12840.98
255.673	12783.09
255.743	12736.04
255.813	12663.93
255.884	12709.05
255.954	12745.97
256.024	12813.13
256.095	12808.88
256.165	12773.69
256.235	12789.55
256.306	12776.83
256.376	12817.42
256.446	12853.76
256.517	12891.85
256.587	12931.38
256.657	12960.01
256.728	12984.98
256.798	13001.51
256.868	13005.03
256.938	12978.08
257.009	13029.38
257.079	13064.08
257.149	13163.29
257.219	13105.25
257.29	13143.42
257.36	13090.35
257.43	13128.72
257.5	13061.14
257.571	13050.2
257.641	13088.28
257.711	13046.58
257.781	13069.33
257.852	13086.93
257.922	13020.16
257.992	13027.68
258.062	13023.34
258.132	13062.25
258.202	13055.84
258.273	13059.21
258.343	13134.85
258.413	13124.77
258.483	13130.27
258.553	13097
258.623	13066.54
258.693	13103.75
258.764	13166.28
258.834	13235.35
258.904	13245.43
258.974	13239.64
259.044	13247.98
259.114	13274.4
259.184	13308.77
259.254	13322.51
259.324	13269.82
259.394	13328.78
259.464	13404.22
259.535	13411.16
259.605	13405.95
259.675	13403.11
259.745	13439.46
259.815	13413.86
259.885	13411.11
259.955	13514.27
260.025	13513.55
260.095	13528.15
260.165	13551.24
260.235	13616.71
260.305	13599.4
260.375	13571.25
260.445	13655.08
260.515	13718.18
260.585	13762.77
260.655	13769.91
260.725	13815.65
260.795	13860.44
260.865	13922.77
260.934	13888.11
261.004	13915.68
261.074	13917.13
261.144	13984.81
261.214	14029.25
261.284	14025.69
261.354	14066.18
261.424	14018.46
261.494	14084.55
261.564	14094
261.634	14123.21
261.703	14051.53
261.773	14078.96
261.843	14115.74
261.913	14108.32
261.983	14057.07
262.053	14079.97
262.123	14079.25
262.192	14036.54
262.262	14068.59
262.332	14022.8
262.402	14057.99
262.472	14064.16
262.541	14007.57
262.611	14047.14
262.681	14015.91
262.751	14060.11
262.821	14063.92
262.89	14036.25
262.96	14066.23
263.03	14141.34
263.1	14162.74
263.169	14188.87
263.239	14220.78
263.309	14281.56
