Data from 20250701_urea_2M_exp3_MAYP1162681_02-19-49-801.txt Node
Date: Wed Jul 02 02:19:49 BST 2025
User: adleo
Spectrometer: MAYP116268
Trigger mode: 0
Integration Time (sec): 4.000000E0
Scans to average: 1
Electric dark correction enabled: true
Nonlinearity correction enabled: true
Boxcar width: 10
XAxis mode: Wavelengths
Number of Pixels in Spectrum: 2068
>>>>>Begin Spectral Data<<<<<
179.565	3668.61
179.642	3862.52
179.718	4016.21
179.795	4150.9
179.871	4266.62
179.948	4323.08
180.024	4394.98
180.101	4474.44
180.177	4525.67
180.254	4604.7
180.33	4682.5
180.407	4950.75
180.483	5239.86
180.56	5533.57
180.636	5798.8
180.712	5762.08
180.789	5801.61
180.865	5845.04
180.942	5873.53
181.018	5914.64
181.095	5964.89
181.171	5983.84
181.248	5987.1
181.324	6038.8
181.4	6064.86
181.477	6102.11
181.553	6152.41
181.63	6225.51
181.706	6283.45
181.782	6310.69
181.859	6311.03
181.935	6330.9
182.011	6315.88
182.088	6367.63
182.164	6431.19
182.24	6482.43
182.317	6513
182.393	6504.27
182.469	6547.52
182.546	6593.52
182.622	6608.69
182.698	6596.34
182.775	6641.53
182.851	6686.66
182.927	6660.49
183.003	6647.48
183.08	6624.68
183.156	6660.98
183.232	6649.35
183.308	6603.83
183.385	6635.23
183.461	6693.19
183.537	6691.9
183.613	6741.22
183.69	6715.57
183.766	6680.21
183.842	6703.41
183.918	6716.81
183.995	6760.31
184.071	6774.05
184.147	6756.28
184.223	6719.42
184.299	6760.07
184.375	6724.34
184.452	6746.98
184.528	6872.86
184.604	6906.32
184.68	6947.28
184.756	6964.92
184.832	6977.89
184.908	6996.85
184.985	6989.65
185.061	6937.25
185.137	6973.42
185.213	6928.9
185.289	6933.37
185.365	6906.38
185.441	6900.04
185.517	6947.77
185.593	6933.07
185.669	6924.95
185.745	6962.47
185.822	7019.84
185.898	6987.6
185.974	7014.48
186.05	6990.31
186.126	6916.99
186.202	6892.6
186.278	6877.37
186.354	6846.91
186.43	6867.86
186.506	6861.91
186.582	6863.21
186.658	6881.11
186.734	6811.96
186.81	6817.1
186.886	6828
186.962	6871.12
187.038	6856.52
187.114	6833.44
187.19	6861.22
187.266	6826.5
187.341	6826.21
187.417	6802.43
187.493	6802.57
187.569	6810.21
187.645	6788.74
187.721	6747.08
187.797	6774.22
187.873	6795.69
187.949	6774.86
188.025	6753.18
188.101	6764.8
188.176	6786.41
188.252	6775.46
188.328	6798.45
188.404	6803.92
188.48	6787.45
188.556	6763.67
188.632	6766.84
188.707	6767.57
188.783	6757.95
188.859	6745.81
188.935	6706.75
189.011	6725.15
189.086	6705.13
189.162	6682.5
189.238	6676.31
189.314	6668.39
189.39	6652.83
189.465	6625.16
189.541	6683.19
189.617	6633.2
189.693	6615.49
189.768	6627.5
189.844	6711.46
189.92	6687.99
189.996	6715.9
190.071	6749.95
190.147	6745.01
190.223	6773.02
190.298	6748.51
190.374	6705.34
190.45	6743.36
190.526	6771.65
190.601	6757.82
190.677	6759.74
190.753	6853.72
190.828	6872.54
190.904	6924.63
190.98	6972.58
191.055	7008.18
191.131	6976.22
191.207	7048.03
191.282	7081.16
191.358	7040.62
191.433	6986.1
191.509	7028.44
191.585	7019.17
191.66	7016.96
191.736	7043.52
191.811	7010.03
191.887	7059.06
191.963	7136.17
192.038	7155.25
192.114	7157.84
192.189	7171.63
192.265	7166.59
192.34	7090.04
192.416	7075.78
192.491	7066.07
192.567	7065.3
192.642	7073.09
192.718	7075.49
192.793	7038.25
192.869	7017.31
192.944	7033.87
193.02	7060.93
193.095	7078.52
193.171	7093.41
193.246	7093.32
193.322	7088.32
193.397	7093.46
193.473	7046.31
193.548	6989.98
193.624	7009.11
193.699	6999.07
193.775	7050.36
193.85	7053.1
193.925	7084.43
194.001	7086.21
194.076	7058.82
194.152	7030.56
194.227	7008.4
194.302	6973.69
194.378	6981.04
194.453	6975.66
194.529	7012.57
194.604	6963.37
194.679	6939.3
194.755	6877.98
194.83	6918.46
194.905	6906.16
194.981	6935.66
195.056	6912.13
195.131	6928.56
195.207	6922.65
195.282	6897.34
195.357	6830.43
195.433	6883.47
195.508	6841.18
195.583	6869.38
195.659	6912.49
195.734	6934.79
195.809	6929.79
195.884	6965.8
195.96	6966.81
196.035	7018.07
196.11	7005.23
196.185	7047.32
196.261	7060.87
196.336	7167.48
196.411	7127.38
196.486	7148.91
196.561	7125.07
196.637	7157.15
196.712	7212.4
196.787	7216.87
196.862	7264.62
196.937	7302.39
197.013	7317.92
197.088	7348.71
197.163	7418.45
197.238	7480.61
197.313	7482.92
197.388	7527.38
197.464	7625.35
197.539	7659.28
197.614	7639.58
197.689	7680.3
197.764	7733.11
197.839	7798.65
197.914	7776.48
197.989	7845.87
198.065	7886.98
198.14	8058.82
198.215	8149.15
198.29	8189.77
198.365	8238.69
198.44	8280.34
198.515	8375.52
198.59	8432.34
198.665	8524.62
198.74	8555.71
198.815	8556.92
198.89	8630.82
198.965	8730.41
199.04	8714.91
199.115	8774.38
199.19	8922.3
199.265	8930.58
199.34	8961.77
199.415	9078.31
199.49	9151.26
199.565	9181.82
199.64	9270.35
199.715	9253.78
199.79	9272.12
199.865	9292.78
199.94	9285.46
200.015	9390.58
200.09	9402.28
200.165	9419.33
200.24	9439.7
200.315	9564.24
200.39	9616.59
200.464	9634.94
200.539	9642.26
200.614	9692.47
200.689	9765.82
200.764	9780.23
200.839	9842.04
200.914	9858.55
200.989	9821.46
201.063	9869.28
201.138	9819.28
201.213	9818.17
201.288	9755.57
201.363	9777.24
201.438	9779.65
201.512	9827.5
201.587	9763.24
201.662	9780.97
201.737	9819.74
201.812	9851.34
201.886	9742.97
201.961	9769.96
202.036	9734.81
202.111	9721.32
202.186	9627.81
202.26	9575.5
202.335	9503.88
202.41	9482.36
202.485	9426.9
202.559	9355.84
202.634	9264.16
202.709	9289.52
202.784	9220.14
202.858	9221.3
202.933	9154.62
203.008	9129.63
203.082	9070.47
203.157	9070.13
203.232	8925.49
203.306	8851.91
203.381	8735.99
203.456	8654.89
203.53	8580.57
203.605	8514.09
203.68	8435.29
203.754	8414.09
203.829	8356.42
203.904	8286.24
203.978	8240.66
204.053	8252.01
204.127	8210.84
204.202	8210.36
204.277	8147.25
204.351	8126.42
204.426	8104.62
204.5	8077.1
204.575	7956.56
204.65	7990.2
204.724	7963.34
204.799	7988.14
204.873	7979.33
204.948	7974.76
205.022	7938.32
205.097	7911.51
205.171	7953.92
205.246	7980.53
205.32	7973.81
205.395	7968.71
205.469	7939.3
205.544	7965.91
205.618	7909.49
205.693	7949.51
205.767	7904.4
205.842	7981.03
205.916	7959.49
205.991	7924.67
206.065	7942.46
206.14	7993.97
206.214	7975.82
206.289	7947.91
206.363	7986.87
206.438	7996.11
206.512	8025.79
206.586	8092.73
206.661	8117.04
206.735	8043.64
206.81	8046.38
206.884	8098.55
206.958	8064.22
207.033	8123.54
207.107	8145.54
207.181	8253.82
207.256	8232.6
207.33	8298.35
207.405	8340.05
207.479	8405.48
207.553	8428.28
207.628	8372.17
207.702	8410.07
207.776	8384.38
207.851	8398.38
207.925	8451.91
207.999	8439.44
208.073	8434.87
208.148	8443.68
208.222	8401.09
208.296	8507.6
208.371	8559.94
208.445	8600.27
208.519	8694.38
208.593	8737.16
208.668	8726.33
208.742	8737.55
208.816	8740.49
208.89	8781.02
208.965	8773.37
209.039	8798.5
209.113	8862.76
209.187	8937.82
209.261	8928.25
209.336	8995.82
209.41	9067.51
209.484	9068.23
209.558	9145.6
209.632	9187.57
209.707	9231.48
209.781	9307.3
209.855	9359.31
209.929	9414.09
210.003	9433.97
210.077	9433.4
210.151	9590.71
210.226	9698.75
210.3	9784.81
210.374	9867.03
210.448	9883.07
210.522	9924.26
210.596	9958.84
210.67	9985.09
210.744	10141.07
210.818	10255.19
210.892	10323.16
210.966	10300.43
211.041	10355.97
211.115	10332.76
211.189	10409.92
211.263	10456.7
211.337	10481.46
211.411	10527.71
211.485	10509.21
211.559	10540.95
211.633	10546.97
211.707	10442.01
211.781	10468.18
211.855	10344.7
211.929	10314.7
212.003	10251.62
212.077	10277.64
212.151	10317.35
212.225	10343.27
212.299	10305.53
212.373	10256.49
212.447	10240.35
212.52	10335.16
212.594	10335.59
212.668	10374.51
212.742	10327.16
212.816	10306.44
212.89	10278.36
212.964	10269.83
213.038	10280.81
213.112	10323.99
213.186	10377.4
213.26	10297.96
213.333	10135.78
213.407	10151.67
213.481	10152.53
213.555	10184.07
213.629	10135.69
213.703	10068.24
213.777	10059.76
213.85	9982.92
213.924	10095
213.998	10083.67
214.072	10048.06
214.146	10000.32
214.219	9980.86
214.293	9956.44
214.367	9947.29
214.441	9970.12
214.515	9922.76
214.588	9822.73
214.662	9689.66
214.736	9600.43
214.81	9610.53
214.883	9628.68
214.957	9571.97
215.031	9519.32
215.105	9427.86
215.178	9359.82
215.252	9322.75
215.326	9221.53
215.4	9137.46
215.473	8947.61
215.547	8864.45
215.621	8797.79
215.694	8786.09
215.768	8683.28
215.842	8614.75
215.915	8544.3
215.989	8431.23
216.063	8370.76
216.136	8348.96
216.21	8330.68
216.284	8335.39
216.357	8317.11
216.431	8273.52
216.504	8273.61
216.578	8326.03
216.652	8336.27
216.725	8316.34
216.799	8320.29
216.873	8299.75
216.946	8309.22
217.02	8268.99
217.093	8240.17
217.167	8141.22
217.24	8057.97
217.314	8032.06
217.387	7984.37
217.461	7936.18
217.535	7957.97
217.608	7896.41
217.682	7871.83
217.755	7875.87
217.829	7819.92
217.902	7796.3
217.976	7780.72
218.049	7735.28
218.123	7661.03
218.196	7657.86
218.27	7619.34
218.343	7547.81
218.417	7535.74
218.49	7507.85
218.563	7550.49
218.637	7555.4
218.71	7626.91
218.784	7650.29
218.857	7679.81
218.931	7703.59
219.004	7714.17
219.077	7734.19
219.151	7751.59
219.224	7745.53
219.298	7741.97
219.371	7785.07
219.444	7745.41
219.518	7751.18
219.591	7768.35
219.665	7869.27
219.738	7884.51
219.811	7863.61
219.885	7911.7
219.958	7950.08
220.031	7956.14
220.105	7980.48
220.178	7986.79
220.251	7957.87
220.325	7984.14
220.398	8004.39
220.471	8023.48
220.544	8063.55
220.618	8034.87
220.691	8061.95
220.764	8079.22
220.838	8108.18
220.911	8094.99
220.984	8181.22
221.057	8219.12
221.131	8241.15
221.204	8147.05
221.277	8215.82
221.35	8345.58
221.424	8340.72
221.497	8352.27
221.57	8375.45
221.643	8406.54
221.716	8453.9
221.79	8458.08
221.863	8473.05
221.936	8471.71
222.009	8488.49
222.082	8513.95
222.155	8520.21
222.229	8586.3
222.302	8615.31
222.375	8624.17
222.448	8668.83
222.521	8676.39
222.594	8680.53
222.667	8650.08
222.74	8703.25
222.814	8693.86
222.887	8675.42
222.96	8726.97
223.033	8774.59
223.106	8802.83
223.179	8829.5
223.252	8837.59
223.325	8871.85
223.398	8879.32
223.471	8917.91
223.544	8935.38
223.617	8948.43
223.69	8978.84
223.763	8941.05
223.837	8964.97
223.91	8989.76
223.983	8935.33
224.056	8898.04
224.129	8919.41
224.202	8978.44
224.275	8970.73
224.348	8946.33
224.42	8905.8
224.493	8845.68
224.566	8814
224.639	8832.24
224.712	8806.77
224.785	8792.56
224.858	8780.68
224.931	8765.99
225.004	8723.16
225.077	8724.89
225.15	8631.55
225.223	8625.2
225.296	8708.18
225.369	8650.38
225.442	8614.76
225.514	8637.47
225.587	8659.26
225.66	8658.64
225.733	8659.7
225.806	8664.03
225.879	8654.16
225.952	8626.55
226.025	8674.19
226.097	8726.4
226.17	8720.96
226.243	8656.43
226.316	8655.56
226.389	8663.22
226.461	8683.58
226.534	8706.53
226.607	8701.05
226.68	8789.24
226.753	8786.01
226.825	8701.64
226.898	8763.29
226.971	8772.24
227.044	8788.26
227.117	8795.05
227.189	8819.75
227.262	8858.36
227.335	8880.99
227.407	8876.32
227.48	8912.89
227.553	8926.76
227.626	8905.76
227.698	8908.07
227.771	8953.05
227.844	8929.47
227.916	8944.2
227.989	8903.57
228.062	8896.06
228.134	8979.07
228.207	8976.37
228.28	8972.33
228.352	8981.14
228.425	8979.6
228.498	9021.77
228.57	9000.45
228.643	9060.69
228.716	9052.89
228.788	9040.76
228.861	9028.09
228.934	9089.27
229.006	9096.64
229.079	9097.55
229.151	9085.95
229.224	9052.94
229.296	9075.47
229.369	9177.47
229.442	9224.08
229.514	9212.34
229.587	9257.83
229.659	9185.56
229.732	9199.9
229.804	9234.56
229.877	9320.97
229.949	9355.41
230.022	9409.6
230.094	9411.09
230.167	9399.68
230.239	9359.82
230.312	9340.9
230.384	9415.22
230.457	9412.86
230.529	9416.56
230.602	9425.42
230.674	9437.27
230.747	9479.28
230.819	9510.35
230.892	9397.95
230.964	9398.67
231.037	9417.44
231.109	9409.11
231.181	9448.49
231.254	9412.86
231.326	9403.48
231.399	9369.94
231.471	9344.03
231.544	9266.53
231.616	9314.43
231.688	9320.11
231.761	9314.87
231.833	9312.07
231.905	9222.4
231.978	9220.04
232.05	9208.25
232.122	9203
232.195	9178.97
232.267	9218.5
232.339	9190.91
232.412	9249.97
232.484	9227.82
232.556	9208.28
232.629	9275.77
232.701	9288.87
232.773	9304.61
232.846	9298.73
232.918	9312.99
232.99	9328.93
233.062	9370.69
233.135	9378.3
233.207	9337.03
233.279	9374.57
233.351	9406.44
233.424	9413.76
233.496	9387.62
233.568	9474.73
233.64	9438.58
233.713	9455.62
233.785	9449.51
233.857	9464.82
233.929	9415.28
234.001	9482.01
234.074	9541.69
234.146	9472.81
234.218	9472.09
234.29	9474.3
234.362	9460.01
234.434	9412.08
234.507	9375.05
234.579	9320.5
234.651	9308.41
234.723	9351.8
234.795	9367.21
234.867	9356.76
234.939	9421.38
235.012	9443.29
235.084	9445.31
235.156	9479.93
235.228	9460.43
235.3	9445.07
235.372	9459.37
235.444	9517.96
235.516	9438
235.588	9453.12
235.66	9473.73
235.732	9451.82
235.804	9471.08
235.876	9519.42
235.948	9579.63
236.02	9598.94
236.092	9610.3
236.164	9620.6
236.236	9612.41
236.308	9615.93
236.38	9647.28
236.452	9619.39
236.524	9643.52
236.596	9708.53
236.668	9748.41
236.74	9777.59
236.812	9805.87
236.884	9831.54
236.956	9846.28
237.028	9838.63
237.1	9819.8
237.172	9887.05
237.244	9961.81
237.316	10015.19
237.388	9992.03
237.46	9972.61
237.532	10032.48
237.604	10026.37
237.675	10102.44
237.747	10154.33
237.819	10144.6
237.891	10150.09
237.963	10144.99
238.035	10139.98
238.107	10020.92
238.178	10083.23
238.25	10084.1
238.322	10173.29
238.394	10132.73
238.466	10135.33
238.538	10183.35
238.609	10227.95
238.681	10169.32
238.753	10148.02
238.825	10162.33
238.897	10195.37
238.968	10274.4
239.04	10255.61
239.112	10375.12
239.184	10327.95
239.255	10325.83
239.327	10358.82
239.399	10376.69
239.471	10423.13
239.542	10456.52
239.614	10526.37
239.686	10435.93
239.758	10492.92
239.829	10461.06
239.901	10528.32
239.973	10545.85
240.044	10574.71
240.116	10587.67
240.188	10607.09
240.259	10616.72
240.331	10614.26
240.403	10651.36
240.474	10603.02
240.546	10591.12
240.618	10530.7
240.689	10534.31
240.761	10545.2
240.833	10610.59
240.904	10610.68
240.976	10607.12
241.048	10624.18
241.119	10667.79
241.191	10718.62
241.262	10780.07
241.334	10781.66
241.405	10782.57
241.477	10779.44
241.549	10785.9
241.62	10807.15
241.692	10852.93
241.763	10919.96
241.835	10939.58
241.906	10955.87
241.978	10923.54
242.049	10995.23
242.121	11051.23
242.192	11119.85
242.264	11088.33
242.335	11045.88
242.407	11092.33
242.478	11101.63
242.55	11121.53
242.621	11102.26
242.693	11093.77
242.764	11080.47
242.836	11082.5
242.907	11117.39
242.979	11152.76
243.05	11173.09
243.122	11201.77
243.193	11195.89
243.264	11124.95
243.336	11127.26
243.407	11168.42
243.479	11258.06
243.55	11274.59
243.622	11288.76
243.693	11287.79
243.764	11352.27
243.836	11325.73
243.907	11310.88
243.978	11312.52
244.05	11338.26
244.121	11292.48
244.192	11346.99
244.264	11303.85
244.335	11321.97
244.407	11264.67
244.478	11284.05
244.549	11276.29
244.62	11229.59
244.692	11231.52
244.763	11273.49
244.834	11265.59
244.906	11237.68
244.977	11257.49
245.048	11305.74
245.119	11287.57
245.191	11259.67
245.262	11198.76
245.333	11283.08
245.405	11305.64
245.476	11336.82
245.547	11354.6
245.618	11408.43
245.689	11422.94
245.761	11458.12
245.832	11462.22
245.903	11518.99
245.974	11544.34
246.045	11561.98
246.117	11649.55
246.188	11631.68
246.259	11615.43
246.33	11628.78
246.401	11644.25
246.473	11601.65
246.544	11587.86
246.615	11642.85
246.686	11648.25
246.757	11727.24
246.828	11700.44
246.899	11768.94
246.97	11739.59
247.042	11726.24
247.113	11767.31
247.184	11851.33
247.255	11847.62
247.326	11873.55
247.397	11876.92
247.468	11888.64
247.539	11901.41
247.61	11849.59
247.681	11898.37
247.752	11956.11
247.823	11936.11
247.894	11948.83
247.965	11926.52
248.037	11913.16
248.108	11857.16
248.179	11868.87
248.25	11856.62
248.321	11884.24
248.392	11837.68
248.463	11913.58
248.534	11916.28
248.605	11941.16
248.675	11916.52
248.746	11936.33
248.817	11947.42
248.888	11968.2
248.959	11905.1
249.03	11937.69
249.101	11955.09
249.172	11941.64
249.243	11859.37
249.314	11923.91
249.385	11931.43
249.456	11958.85
249.527	11956.15
249.598	11988.98
249.669	11992.35
249.739	12004.98
249.81	12016.02
249.881	11971.58
249.952	11971.63
250.023	11968.06
250.094	11919.61
250.165	11874.11
250.235	11866.16
250.306	11869.77
250.377	11837.43
250.448	11867.65
250.519	11796.17
250.59	11842.3
250.66	11836.51
250.731	11914.98
250.802	11911.41
250.873	11927.41
250.944	11949.25
251.014	11935.85
251.085	12027.58
251.156	12055.54
251.227	12109.19
251.297	12166.6
251.368	12231.09
251.439	12279.1
251.51	12331.5
251.58	12310.34
251.651	12317.48
251.722	12381.01
251.792	12331.31
251.863	12338.69
251.934	12398.7
252.005	12517.76
252.075	12532.36
252.146	12583.07
252.217	12630.46
252.287	12671.38
252.358	12686.9
252.429	12758.68
252.499	12758.83
252.57	12760.61
252.641	12805.1
252.711	12813.01
252.782	12763.7
252.852	12831.23
252.923	12819.61
252.994	12827.52
253.064	12879.87
253.135	12856.87
253.205	12831.76
253.276	12913.17
253.347	12973.48
253.417	12955.83
253.488	12932.89
253.558	12918.43
253.629	12910.47
253.699	12929.8
253.77	12948.36
253.841	12940.55
253.911	12949.42
253.982	12961.09
254.052	12995.89
254.123	13000.66
254.193	13003.12
254.264	13143.02
254.334	13102.52
254.405	13074.66
254.475	13043.95
254.546	13050.17
254.616	13114.48
254.687	13141.09
254.757	13159.5
254.827	13160.08
254.898	13180.86
254.968	13189.44
255.039	13174.2
255.109	13217.15
255.18	13183.55
255.25	13123.49
255.321	13146.58
255.391	13103.19
255.461	13189.77
255.532	13103
255.602	13096.35
255.673	13042.6
255.743	13005.63
255.813	12943.4
255.884	12994.45
255.954	13030.07
256.024	13095.49
256.095	13099.54
256.165	13061.93
256.235	13084.93
256.306	13072.2
256.376	13124.12
256.446	13165.77
256.517	13203.28
256.587	13251.34
256.657	13272.93
256.728	13296.22
256.798	13314.25
256.868	13307.55
256.938	13280.55
257.009	13327.7
257.079	13360.24
257.149	13458.53
257.219	13397.3
257.29	13430.66
257.36	13372.04
257.43	13412.49
257.5	13339.41
257.571	13329.77
257.641	13369.78
257.711	13328.61
257.781	13352.81
257.852	13358.4
257.922	13293.75
257.992	13295.15
258.062	13287.3
258.132	13323.88
258.202	13325.96
258.273	13341.19
258.343	13417.79
258.413	13406.03
258.483	13407.33
258.553	13376.96
258.623	13352.61
258.693	13381.39
258.764	13450.96
258.834	13521.77
258.904	13537.39
258.974	13532.66
259.044	13539.65
259.114	13570.51
259.184	13600.11
259.254	13608.83
259.324	13554.5
259.394	13601.74
259.464	13679.12
259.535	13685.19
259.605	13685.48
259.675	13679.6
259.745	13705.15
259.815	13686.83
259.885	13681.96
259.955	13801.21
260.025	13797.26
260.095	13803.72
260.165	13831.15
260.235	13890.83
260.305	13873.62
260.375	13842.96
260.445	13938.6
260.515	14005.41
260.585	14050.1
260.655	14060.17
260.725	14110.89
260.795	14153.12
260.865	14221.9
260.934	14191.44
261.004	14219.3
261.074	14225.91
261.144	14287.8
261.214	14324.97
261.284	14323.38
261.354	14366.67
261.424	14318.61
261.494	14390.05
261.564	14394.63
261.634	14425.29
261.703	14355.25
261.773	14381.33
261.843	14413.96
261.913	14401.24
261.983	14347.59
262.053	14370.05
262.123	14367.44
262.192	14326.13
262.262	14372.75
262.332	14323.24
262.402	14358.67
262.472	14369.66
262.541	14306.61
262.611	14354.19
262.681	14329.99
262.751	14370.33
262.821	14379.01
262.89	14341.8
262.96	14367.3
263.03	14452.91
263.1	14470.02
263.169	14500.15
