Data from 20250701_urea_2M_exp3_MAYP1162681_23-19-50-699.txt Node
Date: Tue Jul 01 23:19:50 BST 2025
User: adleo
Spectrometer: MAYP116268
Trigger mode: 0
Integration Time (sec): 4.000000E0
Scans to average: 1
Electric dark correction enabled: true
Nonlinearity correction enabled: true
Boxcar width: 10
XAxis mode: Wavelengths
Number of Pixels in Spectrum: 2068
>>>>>Begin Spectral Data<<<<<
179.565	3766.96
179.642	3963.94
179.718	4121.08
179.795	4254.33
179.871	4368.48
179.948	4432.42
180.024	4502.87
180.101	4581.77
180.177	4635.25
180.254	4714.26
180.33	4796.16
180.407	5068.83
180.483	5363.26
180.56	5659.03
180.636	5933.47
180.712	5891.08
180.789	5925.62
180.865	5968.29
180.942	5998.79
181.018	6042.11
181.095	6086.04
181.171	6098.13
181.248	6098.9
181.324	6152.78
181.4	6182.44
181.477	6219.02
181.553	6266.98
181.63	6341.44
181.706	6400.74
181.782	6425.92
181.859	6420.16
181.935	6436.1
182.011	6424.44
182.088	6478.12
182.164	6546.15
182.24	6593.95
182.317	6621.6
182.393	6616.32
182.469	6670.53
182.546	6718.12
182.622	6731.47
182.698	6720.04
182.775	6759.46
182.851	6809.5
182.927	6777.9
183.003	6763.88
183.08	6746.64
183.156	6779.69
183.232	6769.6
183.308	6726.95
183.385	6756.71
183.461	6821.7
183.537	6822.51
183.613	6868.19
183.69	6839.71
183.766	6801.5
183.842	6822.78
183.918	6840.08
183.995	6885.8
184.071	6896.76
184.147	6877.44
184.223	6845.38
184.299	6886.08
184.375	6855.58
184.452	6881.25
184.528	7015.71
184.604	7050.38
184.68	7091.6
184.756	7109.28
184.832	7121.78
184.908	7139.64
184.985	7135.7
185.061	7083.67
185.137	7112.31
185.213	7073.35
185.289	7081.56
185.365	7056.97
185.441	7053.51
185.517	7096.92
185.593	7085.73
185.669	7073.86
185.745	7109.46
185.822	7161.27
185.898	7129.17
185.974	7161.78
186.05	7132.36
186.126	7049.94
186.202	7027.6
186.278	7015.97
186.354	6983.39
186.43	7007.38
186.506	7004.65
186.582	7004.79
186.658	7024.28
186.734	6959.69
186.81	6964.68
186.886	6975.11
186.962	7018.05
187.038	7005.7
187.114	6981.56
187.19	7007.52
187.266	6971.11
187.341	6973.9
187.417	6948.44
187.493	6953.72
187.569	6961.6
187.645	6945.03
187.721	6907.64
187.797	6931.71
187.873	6945.59
187.949	6930.13
188.025	6903.16
188.101	6911.37
188.176	6930.35
188.252	6915.41
188.328	6934.76
188.404	6937.25
188.48	6912.62
188.556	6889.22
188.632	6888.35
188.707	6891.14
188.783	6874.85
188.859	6860.35
188.935	6822.25
189.011	6851.45
189.086	6827.58
189.162	6800.2
189.238	6787.52
189.314	6781.04
189.39	6760.91
189.465	6733.33
189.541	6795.22
189.617	6747.73
189.693	6727.08
189.768	6740.87
189.844	6827.87
189.92	6803.78
189.996	6832.7
190.071	6876.13
190.147	6874.54
190.223	6900.49
190.298	6867.77
190.374	6829.49
190.45	6875.68
190.526	6904.03
190.601	6886.68
190.677	6890.38
190.753	6984.28
190.828	6997.1
190.904	7051.69
190.98	7106.24
191.055	7145.93
191.131	7112.24
191.207	7180.59
191.282	7213.54
191.358	7178.85
191.433	7124.75
191.509	7174.15
191.585	7163.05
191.66	7163.34
191.736	7189.91
191.811	7161.13
191.887	7222.9
191.963	7303.73
192.038	7315.26
192.114	7315.65
192.189	7329.87
192.265	7320.65
192.34	7249.76
192.416	7245.06
192.491	7230.82
192.567	7235.25
192.642	7240.1
192.718	7240.34
192.793	7200.46
192.869	7186.81
192.944	7195.99
193.02	7224.64
193.095	7239.15
193.171	7255.06
193.246	7252.7
193.322	7241.89
193.397	7246.89
193.473	7199.1
193.548	7137.18
193.624	7158.96
193.699	7152.76
193.775	7201.61
193.85	7208.62
193.925	7233.43
194.001	7234
194.076	7201.71
194.152	7168.34
194.227	7141.19
194.302	7106.94
194.378	7117.56
194.453	7107.24
194.529	7149.72
194.604	7098.54
194.679	7081.53
194.755	7020.11
194.83	7060.74
194.905	7052.19
194.981	7082.37
195.056	7058.4
195.131	7085.21
195.207	7078.81
195.282	7050.42
195.357	6985.52
195.433	7041.07
195.508	7005.5
195.583	7030.1
195.659	7084.47
195.734	7108.89
195.809	7105.62
195.884	7134.72
195.96	7140.58
196.035	7192.62
196.11	7177.38
196.185	7222.4
196.261	7232.69
196.336	7341.72
196.411	7293.59
196.486	7318.01
196.561	7293.93
196.637	7321.55
196.712	7374.88
196.787	7381.61
196.862	7435.49
196.937	7477.01
197.013	7491.58
197.088	7521.09
197.163	7588.56
197.238	7647.13
197.313	7643.28
197.388	7693.86
197.464	7802.9
197.539	7843.14
197.614	7822.67
197.689	7863.93
197.764	7922.43
197.839	7985.23
197.914	7960.85
197.989	8035.49
198.065	8081.51
198.14	8252.51
198.215	8344.34
198.29	8376.16
198.365	8420.95
198.44	8454.09
198.515	8542.88
198.59	8597.84
198.665	8693.75
198.74	8723.88
198.815	8725.32
198.89	8803.47
198.965	8904.52
199.04	8884.45
199.115	8939.21
199.19	9085.71
199.265	9093.74
199.34	9120.7
199.415	9239.47
199.49	9316.76
199.565	9351.76
199.64	9431.01
199.715	9421.37
199.79	9440.25
199.865	9460.76
199.94	9455.71
200.015	9564.25
200.09	9584.58
200.165	9608.65
200.24	9625.94
200.315	9759.22
200.39	9805.64
200.464	9825.87
200.539	9831.8
200.614	9887.8
200.689	9968.72
200.764	9990.4
200.839	10051.5
200.914	10072.3
200.989	10032.79
201.063	10076.34
201.138	10020.16
201.213	10020.12
201.288	9954.61
201.363	9975.04
201.438	9981.78
201.512	10038.78
201.587	9976.98
201.662	9987.24
201.737	10025.78
201.812	10049.14
201.886	9941.73
201.961	9980.57
202.036	9942.05
202.111	9929.28
202.186	9831.9
202.26	9766.96
202.335	9692.54
202.41	9674.1
202.485	9614.63
202.559	9546.02
202.634	9453.85
202.709	9485.37
202.784	9416.13
202.858	9419.21
202.933	9357.87
203.008	9332.45
203.082	9265.53
203.157	9261.29
203.232	9111.87
203.306	9033.28
203.381	8922.92
203.456	8846.29
203.53	8760.25
203.605	8691.32
203.68	8614.28
203.754	8590.53
203.829	8536.47
203.904	8463.38
203.978	8421.5
204.053	8432.72
204.127	8388.31
204.202	8386.34
204.277	8323.03
204.351	8308.06
204.426	8278.27
204.5	8247.18
204.575	8126.57
204.65	8157.71
204.724	8130.32
204.799	8159.02
204.873	8145.68
204.948	8150.3
205.022	8107.7
205.097	8078
205.171	8124.79
205.246	8153.19
205.32	8148.53
205.395	8151.08
205.469	8126.85
205.544	8146.11
205.618	8085.39
205.693	8133.31
205.767	8088.34
205.842	8162.49
205.916	8138.1
205.991	8102.17
206.065	8123.53
206.14	8179.32
206.214	8164.54
206.289	8141.83
206.363	8184.06
206.438	8194.46
206.512	8217.02
206.586	8281.52
206.661	8315.08
206.735	8237.86
206.81	8236.08
206.884	8289.9
206.958	8242.86
207.033	8299.7
207.107	8321.89
207.181	8431.67
207.256	8406.36
207.33	8471.5
207.405	8516.04
207.479	8577.68
207.553	8609.38
207.628	8550.52
207.702	8590.35
207.776	8569.32
207.851	8578.76
207.925	8630.89
207.999	8617.8
208.073	8606.54
208.148	8614.05
208.222	8569.72
208.296	8681.64
208.371	8736.97
208.445	8775.48
208.519	8877.64
208.593	8917.54
208.668	8901.7
208.742	8909.31
208.816	8912.58
208.89	8958.71
208.965	8950.47
209.039	8976.57
209.113	9029.91
209.187	9100.41
209.261	9083.96
209.336	9149.86
209.41	9219.24
209.484	9212.59
209.558	9293.15
209.632	9340.13
209.707	9383.18
209.781	9456.98
209.855	9507.21
209.929	9560.12
210.003	9573.22
210.077	9563.59
210.151	9727.7
210.226	9848.81
210.3	9938.11
210.374	10023.08
210.448	10035.32
210.522	10068.46
210.596	10104.11
210.67	10132.09
210.744	10292.8
210.818	10407.41
210.892	10479.2
210.966	10460.85
211.041	10522.02
211.115	10501.6
211.189	10581.86
211.263	10637.17
211.337	10660.1
211.411	10709.1
211.485	10693.54
211.559	10732.55
211.633	10744.59
211.707	10634.47
211.781	10653.32
211.855	10529.59
211.929	10499.82
212.003	10438.47
212.077	10468.49
212.151	10505.45
212.225	10542.6
212.299	10509.39
212.373	10467.38
212.447	10455.09
212.52	10555.46
212.594	10563.99
212.668	10602.19
212.742	10551.98
212.816	10524.71
212.89	10499.37
212.964	10486.79
213.038	10489.01
213.112	10526.59
213.186	10570.82
213.26	10486.21
213.333	10329.12
213.407	10346.84
213.481	10347.18
213.555	10380.93
213.629	10330.1
213.703	10269.82
213.777	10253
213.85	10173.17
213.924	10282.27
213.998	10267.13
214.072	10224.68
214.146	10168.31
214.219	10150.82
214.293	10128.52
214.367	10120.28
214.441	10145.04
214.515	10097.39
214.588	10003.51
214.662	9876.89
214.736	9791.07
214.81	9808.54
214.883	9825.96
214.957	9775.84
215.031	9722.51
215.105	9626.46
215.178	9566.7
215.252	9524.52
215.326	9417.43
215.4	9332.67
215.473	9137.94
215.547	9052.35
215.621	8988.57
215.694	8979.28
215.768	8879.53
215.842	8804.25
215.915	8736.16
215.989	8620.52
216.063	8557.97
216.136	8540.69
216.21	8515.43
216.284	8525.73
216.357	8501.14
216.431	8452.97
216.504	8445.32
216.578	8498.27
216.652	8511.3
216.725	8486.18
216.799	8491.38
216.873	8477.23
216.946	8484.25
217.02	8445.07
217.093	8409.32
217.167	8306.4
217.24	8227.04
217.314	8187.42
217.387	8141.56
217.461	8090.28
217.535	8114.33
217.608	8055.02
217.682	8022.79
217.755	8038.85
217.829	7984.19
217.902	7970.68
217.976	7953.32
218.049	7903.05
218.123	7826.1
218.196	7825.14
218.27	7782.48
218.343	7706.94
218.417	7700.79
218.49	7676.41
218.563	7722.13
218.637	7728.29
218.71	7802.75
218.784	7825.02
218.857	7862
218.931	7884.92
219.004	7895.31
219.077	7907.77
219.151	7921.96
219.224	7912.62
219.298	7896.22
219.371	7939.62
219.444	7896.15
219.518	7905.53
219.591	7926.64
219.665	8028.92
219.738	8041
219.811	8026.1
219.885	8080.64
219.958	8116.24
220.031	8116.29
220.105	8136.4
220.178	8143.48
220.251	8116.82
220.325	8141.07
220.398	8157.91
220.471	8183.44
220.544	8222.32
220.618	8204.61
220.691	8232.84
220.764	8253.43
220.838	8286.29
220.911	8267.04
220.984	8355.02
221.057	8393.46
221.131	8415.06
221.204	8318.25
221.277	8391.89
221.35	8521.48
221.424	8510.75
221.497	8518.98
221.57	8545.04
221.643	8580.38
221.716	8629.57
221.79	8629.38
221.863	8640.21
221.936	8647.28
222.009	8657
222.082	8686.22
222.155	8687.28
222.229	8757.42
222.302	8788.94
222.375	8796.07
222.448	8843
222.521	8850.75
222.594	8849.93
222.667	8820.73
222.74	8875.25
222.814	8865.86
222.887	8848.72
222.96	8900.76
223.033	8946.55
223.106	8975.32
223.179	9010.09
223.252	9022.42
223.325	9059.82
223.398	9075.75
223.471	9108.15
223.544	9133.8
223.617	9144.58
223.69	9173.7
223.763	9133.64
223.837	9160.22
223.91	9188.67
223.983	9129.52
224.056	9090.53
224.129	9114.46
224.202	9173.25
224.275	9163.05
224.348	9133.3
224.42	9097.47
224.493	9038.41
224.566	9010.92
224.639	9028.77
224.712	8997.42
224.785	8976.91
224.858	8968.1
224.931	8950.81
225.004	8910.48
225.077	8903.79
225.15	8813.22
225.223	8812.26
225.296	8897.99
225.369	8839.08
225.442	8805.42
225.514	8830.25
225.587	8849.64
225.66	8853.88
225.733	8854.22
225.806	8862.84
225.879	8848.3
225.952	8812.26
226.025	8860.35
226.097	8909.76
226.17	8900.13
226.243	8832.95
226.316	8833.57
226.389	8836.6
226.461	8857.12
226.534	8875.26
226.607	8864.72
226.68	8942.62
226.753	8934.58
226.825	8844.13
226.898	8901.31
226.971	8904.87
227.044	8933.18
227.117	8937.8
227.189	8954.89
227.262	8990.19
227.335	9012.14
227.407	9017.39
227.48	9055.26
227.553	9065.8
227.626	9050
227.698	9057.95
227.771	9091.82
227.844	9070.97
227.916	9082.67
227.989	9042.91
228.062	9037.47
228.134	9132.38
228.207	9137.67
228.28	9133.97
228.352	9148.89
228.425	9148.07
228.498	9195.26
228.57	9169.55
228.643	9230.62
228.716	9231.96
228.788	9221.27
228.861	9209.28
228.934	9261.81
229.006	9272.78
229.079	9270.28
229.151	9255.11
229.224	9219.2
229.296	9251.7
229.369	9351.45
229.442	9401.34
229.514	9381.57
229.587	9428.22
229.659	9353.14
229.732	9364.6
229.804	9404.13
229.877	9487.65
229.949	9521.61
230.022	9580.05
230.094	9576.58
230.167	9563.19
230.239	9517.5
230.312	9505.13
230.384	9581.62
230.457	9584.18
230.529	9585.33
230.602	9593.95
230.674	9599.3
230.747	9643.39
230.819	9672.48
230.892	9553.09
230.964	9557.28
231.037	9588.56
231.109	9583.6
231.181	9622.7
231.254	9592.75
231.326	9575.13
231.399	9542.07
231.471	9516.69
231.544	9427.62
231.616	9473.84
231.688	9482.89
231.761	9476.83
231.833	9464.07
231.905	9373.57
231.978	9373.13
232.05	9359.56
232.122	9362.69
232.195	9341.5
232.267	9380.27
232.339	9357.1
232.412	9423.88
232.484	9397.77
232.556	9371.83
232.629	9440.67
232.701	9462.92
232.773	9475.44
232.846	9468.94
232.918	9478.86
232.99	9495.87
233.062	9546.44
233.135	9563.05
233.207	9521.59
233.279	9569.58
233.351	9604.64
233.424	9610.08
233.496	9588.84
233.568	9676.01
233.64	9641.73
233.713	9660.56
233.785	9655.64
233.857	9664.46
233.929	9611.88
234.001	9681.11
234.074	9749.09
234.146	9680.78
234.218	9675.63
234.29	9676.06
234.362	9665.81
234.434	9624.67
234.507	9583.93
234.579	9527.44
234.651	9511.11
234.723	9544.87
234.795	9555.56
234.867	9546.56
234.939	9609.12
235.012	9625.64
235.084	9631.27
235.156	9666.47
235.228	9647.16
235.3	9627.66
235.372	9648.9
235.444	9717.04
235.516	9639.9
235.588	9645.63
235.66	9656.04
235.732	9624.54
235.804	9828.81
235.876	9874.65
235.948	9933.81
236.02	9953.79
236.092	9968.28
236.164	9973.97
236.236	9977.19
236.308	9983.45
236.38	10017.22
236.452	9991.16
236.524	10009.41
236.596	10073.41
236.668	10109.79
236.74	10136.37
236.812	10170.28
236.884	10204.39
236.956	10212.77
237.028	10203.77
237.1	10183.68
237.172	10252.53
237.244	10334.81
237.316	10207.75
237.388	10192.34
237.46	10163.77
237.532	10231.12
237.604	10222.84
237.675	10305.42
237.747	10354.66
237.819	10338.14
237.891	10337.71
237.963	10332.65
238.035	10333.66
238.107	10214.64
238.178	10281.24
238.25	10289.24
238.322	10379.26
238.394	10322.17
238.466	10323.14
238.538	10368.08
238.609	10413.6
238.681	10361.75
238.753	10339.54
238.825	10359.68
238.897	10388.53
238.968	10477.68
239.04	10455.76
239.112	10571.72
239.184	10530.81
239.255	10522.04
239.327	10555.32
239.399	10581.1
239.471	10628.79
239.542	10660.88
239.614	10741.19
239.686	10650.5
239.758	10707.21
239.829	10671.11
239.901	10743.91
239.973	10755.95
240.044	10784.62
240.116	10796.53
240.188	10814.06
240.259	10825.58
240.331	10809.43
240.403	10849.33
240.474	10798.05
240.546	10783.74
240.618	10718.35
240.689	10713.48
240.761	10736.76
240.833	10806.78
240.904	10807.55
240.976	10808.7
241.048	10826.44
241.119	10851.64
241.191	10901.12
241.262	10961.95
241.334	10965.76
241.405	10967.83
241.477	10972.65
241.549	10982.58
241.62	11014.29
241.692	11057.46
241.763	11122.48
241.835	11158.19
241.906	11169.61
241.978	11143.45
242.049	11217.51
242.121	11284.78
242.192	11355
242.264	11321.8
242.335	11268.26
242.407	11317.22
242.478	11324.26
242.55	11345.8
242.621	11335.48
242.693	11335.05
242.764	11333.41
242.836	11336.16
242.907	11371.82
242.979	11404.59
243.05	11426.62
243.122	11451.1
243.193	11456.98
243.264	11383.39
243.336	11380.98
243.407	11425.18
243.479	11509.27
243.55	11529.23
243.622	11545.42
243.693	11547.59
243.764	11614.44
243.836	11596.13
243.907	11577.14
243.978	11581.52
244.05	11603.99
244.121	11557.53
244.192	11601.92
244.264	11546.63
244.335	11560.95
244.407	11510.73
244.478	11532.61
244.549	11527.02
244.62	11482.63
244.692	11476.32
244.763	11526.15
244.834	11513.52
244.906	11485.61
244.977	11502.68
245.048	11548.66
245.119	11526.06
245.191	11500.42
245.262	11434.01
245.333	11518.63
245.405	11545.86
245.476	11578.63
245.547	11602.4
245.618	11655.84
245.689	11666.5
245.761	11704.04
245.832	11708.04
245.903	11754.65
245.974	11780.39
246.045	11796.39
246.117	11870.76
246.188	11855.63
246.259	11833.02
246.33	11847.58
246.401	11867.15
246.473	11831.62
246.544	11819.47
246.615	11879.63
246.686	11885.51
246.757	11970.67
246.828	11946.67
246.899	12015.21
246.97	11983.5
247.042	11972.85
247.113	12023.8
247.184	12113.32
247.255	12113.03
247.326	12143.35
247.397	12147.16
247.468	12153.9
247.539	12160.7
247.61	12123.58
247.681	12175.35
247.752	12233.53
247.823	12210.01
247.894	12219.02
247.965	12193.38
248.037	12181.95
248.108	12120.26
248.179	12128.26
248.25	12112.4
248.321	12142.14
248.392	12091.95
248.463	12173.41
248.534	12169.41
248.605	12187.39
248.675	12161.55
248.746	12179.2
248.817	12193.22
248.888	12217.76
248.959	12166.57
249.03	12202.63
249.101	12209.9
249.172	12192.84
249.243	12117.22
249.314	12188.7
249.385	12198.82
249.456	12229.24
249.527	12224.08
249.598	12259.12
249.669	12258.64
249.739	12275.46
249.81	12287.12
249.881	12246.35
249.952	12237.62
250.023	12241.62
250.094	12185.75
250.165	12155.34
250.235	12149.5
250.306	12154.76
250.377	12123.23
250.448	12153.02
250.519	12080.33
250.59	12142.71
250.66	12140.59
250.731	12214.81
250.802	12211.2
250.873	12232.79
250.944	12256.85
251.014	12244.31
251.085	12337.01
251.156	12359.62
251.227	12407.68
251.297	12460.32
251.368	12516.96
251.439	12555.43
251.51	12598.81
251.58	12582.9
251.651	12580.35
251.722	12635.01
251.792	12586.09
251.863	12585.89
251.934	12640.46
252.005	12754.75
252.075	12758.9
252.146	12803.82
252.217	12857.04
252.287	12899.08
252.358	12897.39
252.429	12966.18
252.499	12961.5
252.57	12959.86
252.641	13015.64
252.711	13019.06
252.782	12970.95
252.852	13048.9
252.923	13051.99
252.994	13067.85
253.064	13123.23
253.135	13097.35
253.205	13078.93
253.276	13158.47
253.347	13228.65
253.417	13212.89
253.488	13195.15
253.558	13184.26
253.629	13188.74
253.699	13199.87
253.77	13230.24
253.841	13234.2
253.911	13246.3
253.982	13261.48
254.052	13298.07
254.123	13304.14
254.193	13314.51
254.264	13460.95
254.334	13416.46
254.405	13379.78
254.475	13346.13
254.546	13349.55
254.616	13415.69
254.687	13447.94
254.757	13465.87
254.827	13465.15
254.898	13484.58
254.968	13493.06
255.039	13473.68
255.109	13512.58
255.18	13480.24
255.25	13404.84
255.321	13432.03
255.391	13387.25
255.461	13479.66
255.532	13392.12
255.602	13380.74
255.673	13330.32
255.743	13291.56
255.813	13226.34
255.884	13281.58
255.954	13324.82
256.024	13393.66
256.095	13395.59
256.165	13359.34
256.235	13379.44
256.306	13364.16
256.376	13417.67
256.446	13461.34
256.517	13500.01
256.587	13537.8
256.657	13559.88
256.728	13591.21
256.798	13599.6
256.868	13606.49
256.938	13572.27
257.009	13620.67
257.079	13658.85
257.149	13757.33
257.219	13687.29
257.29	13719.78
257.36	13661.01
257.43	13695.67
257.5	13628.04
257.571	13619.89
257.641	13651.03
257.711	13618.98
257.781	13649.83
257.852	13664
257.922	13593.33
257.992	13602.92
258.062	13597.38
258.132	13643.22
258.202	13644.86
258.273	13660
258.343	13733.18
258.413	13722.67
258.483	13729.56
258.553	13695.96
258.623	13664.24
258.693	13698.52
258.764	13771.12
258.834	13837.54
258.904	13851.96
258.974	13840
259.044	13847.96
259.114	13878.18
259.184	13902.14
259.254	13917.71
259.324	13863.43
259.394	13919.93
259.464	13992.72
259.535	14002.79
259.605	13996.33
259.675	13990.36
259.745	14023.62
259.815	13994.26
259.885	13992.57
259.955	14104.11
260.025	14095.29
260.095	14102.62
260.165	14139.59
260.235	14202.11
260.305	14195.7
260.375	14162.01
260.445	14252.1
260.515	14324.51
260.585	14376.76
260.655	14382.74
260.725	14422.8
260.795	14467.29
260.865	14534.49
260.934	14501.13
261.004	14521.57
261.074	14522.87
261.144	14577.01
261.214	14620.87
261.284	14622.9
261.354	14663.73
261.424	14616.59
261.494	14693.48
261.564	14704.42
261.634	14725.05
261.703	14657.9
261.773	14680.85
261.843	14719.03
261.913	14710.98
261.983	14642.38
262.053	14661.28
262.123	14665.28
262.192	14628.59
262.262	14666.58
262.332	14618.9
262.402	14649.95
262.472	14669.18
262.541	14610.56
262.611	14662.28
262.681	14629.36
262.751	14673.76
262.821	14684.27
262.89	14656.31
262.96	14682.68
263.03	14761.73
263.1	14782.7
