Data from 20250701_urea_2M_exp3_MAYP1162681_04-59-49-058.txt Node
Date: Wed Jul 02 04:59:49 BST 2025
User: adleo
Spectrometer: MAYP116268
Trigger mode: 0
Integration Time (sec): 4.000000E0
Scans to average: 1
Electric dark correction enabled: true
Nonlinearity correction enabled: true
Boxcar width: 10
XAxis mode: Wavelengths
Number of Pixels in Spectrum: 2068
>>>>>Begin Spectral Data<<<<<
179.565	3569.43
179.642	3758.77
179.718	3908.36
179.795	4036.5
179.871	4150.99
179.948	4214.17
180.024	4285.37
180.101	4360.4
180.177	4409.74
180.254	4488.78
180.33	4565.47
180.407	4826.18
180.483	5111.11
180.56	5397.09
180.636	5656.95
180.712	5620.82
180.789	5656.26
180.865	5699.1
180.942	5730.59
181.018	5773.08
181.095	5817.24
181.171	5841.07
181.248	5841.26
181.324	5894.39
181.4	5920.11
181.477	5953.65
181.553	5997.52
181.63	6069.69
181.706	6127.82
181.782	6158.26
181.859	6157.92
181.935	6171.8
182.011	6160.95
182.088	6213.75
182.164	6278.06
182.24	6325.98
182.317	6352.75
182.393	6348.68
182.469	6392.35
182.546	6437.57
182.622	6449.42
182.698	6437.61
182.775	6475.2
182.851	6528.15
182.927	6500.35
183.003	6485.67
183.08	6466.13
183.156	6497.63
183.232	6486.15
183.308	6439.58
183.385	6465.02
183.461	6517.35
183.537	6524.22
183.613	6567.58
183.69	6539.73
183.766	6503.64
183.842	6527.8
183.918	6548.4
183.995	6592.76
184.071	6600.64
184.147	6585.61
184.223	6551.01
184.299	6593.28
184.375	6551.66
184.452	6571.7
184.528	6698.23
184.604	6735.96
184.68	6777.01
184.756	6800.31
184.832	6813.71
184.908	6836.55
184.985	6831.37
185.061	6780.28
185.137	6805.5
185.213	6763.96
185.289	6761.8
185.365	6737.89
185.441	6731.17
185.517	6774.76
185.593	6762.36
185.669	6759.82
185.745	6792
185.822	6847.44
185.898	6820.29
185.974	6852.36
186.05	6827.13
186.126	6749.97
186.202	6725.49
186.278	6715.59
186.354	6680.29
186.43	6701.38
186.506	6701.24
186.582	6703.3
186.658	6725.57
186.734	6666.71
186.81	6677.9
186.886	6693.5
186.962	6728.65
187.038	6716.64
187.114	6691.4
187.19	6717.97
187.266	6685.71
187.341	6687.82
187.417	6660.36
187.493	6654.02
187.569	6669.34
187.645	6645.38
187.721	6609.21
187.797	6635.23
187.873	6642.48
187.949	6626.26
188.025	6602.32
188.101	6607.8
188.176	6621.87
188.252	6608.57
188.328	6631.79
188.404	6629.44
188.48	6605.68
188.556	6586.9
188.632	6584.21
188.707	6585.13
188.783	6572.87
188.859	6557.95
188.935	6520.92
189.011	6551.7
189.086	6530.48
189.162	6501.43
189.238	6496.44
189.314	6487.22
189.39	6473.34
189.465	6452.5
189.541	6509.65
189.617	6460.83
189.693	6446.67
189.768	6464.83
189.844	6548.58
189.92	6525.21
189.996	6554.94
190.071	6598.63
190.147	6594.94
190.223	6627.79
190.298	6600.22
190.374	6556.77
190.45	6598.72
190.526	6628.25
190.601	6602.85
190.677	6610.77
190.753	6703.77
190.828	6715.43
190.904	6765.82
190.98	6814.15
191.055	6853.45
191.131	6819.19
191.207	6890.07
191.282	6923.63
191.358	6886.8
191.433	6833.2
191.509	6875.58
191.585	6862.42
191.66	6865.3
191.736	6893.45
191.811	6860.25
191.887	6920.61
191.963	7001.22
192.038	7014.96
192.114	7013.08
192.189	7030.61
192.265	7019.95
192.34	6946.16
192.416	6940.25
192.491	6922.47
192.567	6930.74
192.642	6937.71
192.718	6944.82
192.793	6899.95
192.869	6879.16
192.944	6894.04
193.02	6924.99
193.095	6938.49
193.171	6963.61
193.246	6962.89
193.322	6952.47
193.397	6959.38
193.473	6910.5
193.548	6851.59
193.624	6872.64
193.699	6865.48
193.775	6914.6
193.85	6918.01
193.925	6946.74
194.001	6945.16
194.076	6924.84
194.152	6887.69
194.227	6863.08
194.302	6828.86
194.378	6847.2
194.453	6838.7
194.529	6881.85
194.604	6829.25
194.679	6806.77
194.755	6737.35
194.83	6774.46
194.905	6768.22
194.981	6794.88
195.056	6768.57
195.131	6788.07
195.207	6784.8
195.282	6754.31
195.357	6695.58
195.433	6747.26
195.508	6705.13
195.583	6733.99
195.659	6782.9
195.734	6808.32
195.809	6806.64
195.884	6838.81
195.96	6840.2
196.035	6889.53
196.11	6861.56
196.185	6901.76
196.261	6919.63
196.336	7029.15
196.411	6982.23
196.486	7000.39
196.561	6978.1
196.637	7009.79
196.712	7058.25
196.787	7060.36
196.862	7115.98
196.937	7143.65
197.013	7159.18
197.088	7194.29
197.163	7265.65
197.238	7318.32
197.313	7312.08
197.388	7358.84
197.464	7452.85
197.539	7487.88
197.614	7466.11
197.689	7513.8
197.764	7567.9
197.839	7628.28
197.914	7602.75
197.989	7675.01
198.065	7724.87
198.14	7899.58
198.215	7986.72
198.29	8023.1
198.365	8071.72
198.44	8107.59
198.515	8201.69
198.59	8256.24
198.665	8342.78
198.74	8367.08
198.815	8375.65
198.89	8449.73
198.965	8545.41
199.04	8534.06
199.115	8583.6
199.19	8722.11
199.265	8732.84
199.34	8765.85
199.415	8875.3
199.49	8946.98
199.565	8976.34
199.64	9048.4
199.715	9028.98
199.79	9047.56
199.865	9074.04
199.94	9061.82
200.015	9163.75
200.09	9183.87
200.165	9208.09
200.24	9227.97
200.315	9356.7
200.39	9399.07
200.464	9421.65
200.539	9422.28
200.614	9475.18
200.689	9551.65
200.764	9578.39
200.839	9636.15
200.914	9654.06
200.989	9620.77
201.063	9668.78
201.138	9612.58
201.213	9612.29
201.288	9547.24
201.363	9566.55
201.438	9568.28
201.512	9632.64
201.587	9574.07
201.662	9586.07
201.737	9623.58
201.812	9654.8
201.886	9543.26
201.961	9576.36
202.036	9537.27
202.111	9526.34
202.186	9432.01
202.26	9378.12
202.335	9305.02
202.41	9280.37
202.485	9217.84
202.559	9146.16
202.634	9059.46
202.709	9091.06
202.784	9029.88
202.858	9034.16
202.933	8970.62
203.008	8941.26
203.082	8870.6
203.157	8866.17
203.232	8722.09
203.306	8650.34
203.381	8542.37
203.456	8469.46
203.53	8390.77
203.605	8327.39
203.68	8252.83
203.754	8228.31
203.829	8178.27
203.904	8109.62
203.978	8070.7
204.053	8089.08
204.127	8054.21
204.202	8044.06
204.277	7984.95
204.351	7962.97
204.426	7934.87
204.5	7907.31
204.575	7797.94
204.65	7830.03
204.724	7809.24
204.799	7837.93
204.873	7820.89
204.948	7814.35
205.022	7773.84
205.097	7749.1
205.171	7789.34
205.246	7817.97
205.32	7815.71
205.395	7809.84
205.469	7783.22
205.544	7799.24
205.618	7742.21
205.693	7777.22
205.767	7741.54
205.842	7812.92
205.916	7791.86
205.991	7760.84
206.065	7780.18
206.14	7832.93
206.214	7817.48
206.289	7785.34
206.363	7821.84
206.438	7833
206.512	7853.11
206.586	7918.25
206.661	7946.94
206.735	7878.93
206.81	7875.37
206.884	7923.11
206.958	7884.74
207.033	7941.03
207.107	7970
207.181	8072.39
207.256	8053.39
207.33	8116.64
207.405	8159.73
207.479	8219.9
207.553	8245.05
207.628	8193.08
207.702	8225.5
207.776	8203.85
207.851	8218.86
207.925	8269.58
207.999	8258.66
208.073	8254.09
208.148	8261.93
208.222	8223.63
208.296	8329.26
208.371	8384.29
208.445	8420.58
208.519	8511.68
208.593	8548.06
208.668	8538.76
208.742	8546.76
208.816	8551.42
208.89	8592.25
208.965	8587.48
209.039	8619.3
209.113	8677.15
209.187	8745.33
209.261	8734.75
209.336	8803.13
209.41	8869.46
209.484	8866.91
209.558	8941.48
209.632	8985.85
209.707	9022.62
209.781	9094.49
209.855	9146.35
209.929	9200.88
210.003	9229.1
210.077	9224.81
210.151	9385.38
210.226	9492.12
210.3	9585.4
210.374	9664.14
210.448	9681.82
210.522	9711.15
210.596	9743.71
210.67	9773.95
210.744	9927.6
210.818	10036.59
210.892	10106.54
210.966	10085.4
211.041	10141.22
211.115	10122.83
211.189	10198.35
211.263	10254.84
211.337	10272.38
211.411	10320.07
211.485	10300.27
211.559	10327.05
211.633	10334.94
211.707	10229.94
211.781	10249.56
211.855	10125.6
211.929	10093.1
212.003	10024.06
212.077	10056.83
212.151	10095.66
212.225	10123.02
212.299	10082.16
212.373	10039.96
212.447	10015.2
212.52	10112.17
212.594	10114.38
212.668	10155.04
212.742	10103.59
212.816	10080.61
212.89	10059.47
212.964	10045.78
213.038	10054.36
213.112	10090.44
213.186	10140.14
213.26	10059.07
213.333	9908.32
213.407	9916.17
213.481	9923.3
213.555	9960.55
213.629	9909
213.703	9839.1
213.777	9821.66
213.85	9753.94
213.924	9853.76
213.998	9843.21
214.072	9805.87
214.146	9755.92
214.219	9732.41
214.293	9718.88
214.367	9711.46
214.441	9735.06
214.515	9688.82
214.588	9596.06
214.662	9475.1
214.736	9390.94
214.81	9409.17
214.883	9429.09
214.957	9383.37
215.031	9330.29
215.105	9237.69
215.178	9177.8
215.252	9149.73
215.326	9053.93
215.4	8970.25
215.473	8794.54
215.547	8712.4
215.621	8647.52
215.694	8638.91
215.768	8546.98
215.842	8476.34
215.915	8409.23
215.989	8295.73
216.063	8236.18
216.136	8216.07
216.21	8191.73
216.284	8200.83
216.357	8171.96
216.431	8121.64
216.504	8119.57
216.578	8172.6
216.652	8184.33
216.725	8157.34
216.799	8157.63
216.873	8137.04
216.946	8141.03
217.02	8102.25
217.093	8066.89
217.167	7973.82
217.24	7896.6
217.314	7864.2
217.387	7817.73
217.461	7770.21
217.535	7790.7
217.608	7728.96
217.682	7698.66
217.755	7709.19
217.829	7651.47
217.902	7634.93
217.976	7621.42
218.049	7573.1
218.123	7490.35
218.196	7484.78
218.27	7452.03
218.343	7377.15
218.417	7370.8
218.49	7348.01
218.563	7392.77
218.637	7403.3
218.71	7472.69
218.784	7499.14
218.857	7525.09
218.931	7545.7
219.004	7550.94
219.077	7564.75
219.151	7581.76
219.224	7579.07
219.298	7572.87
219.371	7621.49
219.444	7585.16
219.518	7588.96
219.591	7607.89
219.665	7719.48
219.738	7732.66
219.811	7717.76
219.885	7770.27
219.958	7808.22
220.031	7813.02
220.105	7830.96
220.178	7840.63
220.251	7814.27
220.325	7833.42
220.398	7851.64
220.471	7876.49
220.544	7913.77
220.618	7889.47
220.691	7916.93
220.764	7930.4
220.838	7962.82
220.911	7947.61
220.984	8035.52
221.057	8075.05
221.131	8095.77
221.204	7995.48
221.277	8067.12
221.35	8183.92
221.424	8174.45
221.497	8187.68
221.57	8210.27
221.643	8235.39
221.716	8279.71
221.79	8284.19
221.863	8295.4
221.936	8298.05
222.009	8317.09
222.082	8347.84
222.155	8359.1
222.229	8420.8
222.302	8450.77
222.375	8451.97
222.448	8494.27
222.521	8497.74
222.594	8500.72
222.667	8478.75
222.74	8533.3
222.814	8530.07
222.887	8517.65
222.96	8573.33
223.033	8611.51
223.106	8637.43
223.179	8671.67
223.252	8684.23
223.325	8715.84
223.398	8731.59
223.471	8765.37
223.544	8779.9
223.617	8793.9
223.69	8818.92
223.763	8785.37
223.837	8813.53
223.91	8839.09
223.983	8789.38
224.056	8754.64
224.129	8770.52
224.202	8823.29
224.275	8810
224.348	8777.81
224.42	8743.53
224.493	8681.45
224.566	8654.64
224.639	8673.02
224.712	8651.21
224.785	8634.5
224.858	8624.01
224.931	8602.01
225.004	8562.89
225.077	8562.41
225.15	8467.16
225.223	8464.8
225.296	8543.58
225.369	8480.69
225.442	8449.31
225.514	8467.78
225.587	8487.32
225.66	8495.84
225.733	8502.57
225.806	8516.39
225.879	8509.94
225.952	8477.57
226.025	8529.73
226.097	8578.89
226.17	8569.6
226.243	8499.07
226.316	8492.62
226.389	8496.52
226.461	8520.92
226.534	8542.91
226.607	8535.6
226.68	8620.4
226.753	8617.03
226.825	8540.56
226.898	8598.11
226.971	8604.65
227.044	8620.05
227.117	8631.46
227.189	8644.65
227.262	8675.51
227.335	8697.89
227.407	8687.12
227.48	8723.53
227.553	8728.25
227.626	8709.18
227.698	8715.72
227.771	8758
227.844	8742.03
227.916	8758.58
227.989	8718.35
228.062	8712.86
228.134	8798.61
228.207	8802.12
228.28	8792.74
228.352	8805.49
228.425	8808.33
228.498	8853.29
228.57	8835.49
228.643	8887.44
228.716	8897.46
228.788	8888.36
228.861	8879.02
228.934	8950.35
229.006	8956.22
229.079	8961.56
229.151	8947.94
229.224	8914.31
229.296	8935.58
229.369	9039.5
229.442	9090.78
229.514	9076.11
229.587	9123.24
229.659	9044.52
229.732	9059.25
229.804	9105.22
229.877	9180.64
229.949	9212.9
230.022	9262.08
230.094	9261.98
230.167	9247.87
230.239	9196.08
230.312	9177.31
230.384	9247.19
230.457	9240.26
230.529	9253.11
230.602	9254.89
230.674	9262.74
230.747	9307.1
230.819	9338.64
230.892	9217.88
230.964	9213.55
231.037	9244.34
231.109	9232.35
231.181	9275.38
231.254	9237.06
231.326	9219.59
231.399	9191.02
231.471	9165.98
231.544	9095.13
231.616	9141.19
231.688	9151.02
231.761	9142.26
231.833	9134.75
231.905	9046.38
231.978	9040.03
232.05	9023.47
232.122	9026.26
232.195	9007.2
232.267	9039.31
232.339	9015.24
232.412	9085.85
232.484	9061.72
232.556	9035.74
232.629	9104.76
232.701	9120.41
232.773	9134.94
232.846	9128.78
232.918	9137.69
232.99	9156.38
233.062	9192.01
233.135	9203.37
233.207	9160.91
233.279	9204.6
233.351	9233.77
233.424	9241.91
233.496	9224.14
233.568	9305.81
233.64	9271.68
233.713	9286.46
233.785	9283.67
233.857	9300.95
233.929	9248.67
234.001	9313.03
234.074	9379.21
234.146	9310.53
234.218	9311.25
234.29	9311.34
234.362	9294.16
234.434	9247.06
234.507	9209.17
234.579	9156.93
234.651	9135.46
234.723	9174.99
234.795	9196.37
234.867	9190.25
234.939	9253.96
235.012	9269.13
235.084	9267.68
235.156	9302.1
235.228	9288.24
235.3	9279.52
235.372	9292.91
235.444	9349.19
235.516	9268.55
235.588	9272.7
235.66	9286.9
235.732	9253.1
235.804	9450.17
235.876	9502.4
235.948	9567.85
236.02	9585.23
236.092	9598.76
236.164	9617.39
236.236	9613.54
236.308	9619.89
236.38	9649.8
236.452	9623.07
236.524	9645.27
236.596	9712.54
236.668	9746.35
236.74	9767.15
236.812	9790.02
236.884	9821.96
236.956	9831.54
237.028	9829.09
237.1	9811.42
237.172	9878.47
237.244	9957.6
237.316	9837.54
237.388	9821.61
237.46	9794.92
237.532	9853.63
237.604	9850.45
237.675	9921.31
237.747	9970.16
237.819	9952.05
237.891	9958.89
237.963	9951.48
238.035	9944.06
238.107	9834.4
238.178	9897.62
238.25	9901.81
238.322	9991.19
238.394	9943.46
238.466	9951.84
238.538	9995.66
238.609	10040.31
238.681	9987.41
238.753	9963.47
238.825	9978.84
238.897	10005.71
238.968	10088.25
239.04	10073.94
239.112	10186.9
239.184	10143.39
239.255	10135.88
239.327	10165.2
239.399	10179.7
239.471	10219.73
239.542	10258.65
239.614	10328.74
239.686	10244.81
239.758	10301.99
239.829	10267.72
239.901	10336.85
239.973	10347.45
240.044	10375.1
240.116	10382.62
240.188	10398.66
240.259	10418.22
240.331	10411.13
240.403	10446.49
240.474	10398.54
240.546	10380.14
240.618	10317.26
240.689	10317.55
240.761	10336.97
240.833	10405.87
240.904	10409.87
240.976	10409.67
241.048	10427.89
241.119	10456.37
241.191	10504.49
241.262	10576.26
241.334	10580.79
241.405	10581.27
241.477	10580.88
241.549	10595.58
241.62	10619.96
241.692	10666.02
241.763	10723.42
241.835	10743.37
241.906	10756.18
241.978	10725.78
242.049	10803.5
242.121	10862.13
242.192	10929.5
242.264	10901.31
242.335	10853.8
242.407	10898.76
242.478	10909.16
242.55	10923.91
242.621	10913.74
242.693	10910.56
242.764	10888.05
242.836	10894.99
242.907	10923.95
242.979	10957.73
243.05	10978.98
243.122	11007.61
243.193	10999.99
243.264	10926.17
243.336	10926.94
243.407	10971.61
243.479	11049.92
243.55	11058.83
243.622	11077.15
243.693	11080.52
243.764	11146.59
243.836	11120.24
243.907	11108.05
243.978	11112.19
244.05	11141.35
244.121	11096.82
244.192	11142.89
244.264	11098.12
244.335	11109.83
244.407	11063.19
244.478	11078.99
244.549	11070.46
244.62	11028.39
244.692	11035.96
244.763	11087.56
244.834	11077.54
244.906	11050.74
244.977	11075.95
245.048	11127.48
245.119	11103.24
245.191	11077.65
245.262	11012.4
245.333	11091.9
245.405	11106.79
245.476	11142.02
245.547	11157.35
245.618	11211.07
245.689	11216.09
245.761	11253.05
245.832	11251.22
245.903	11292.08
245.974	11326.11
246.045	11339.12
246.117	11419.99
246.188	11400.38
246.259	11381.34
246.33	11400.77
246.401	11409.34
246.473	11374.69
246.544	11363.12
246.615	11424.96
246.686	11426.11
246.757	11502.74
246.828	11485.43
246.899	11562.56
246.97	11524.2
247.042	11511.38
247.113	11548.49
247.184	11636.99
247.255	11632.95
247.326	11661.96
247.397	11675.07
247.468	11682.88
247.539	11693.05
247.61	11645.91
247.681	11693.38
247.752	11745.48
247.823	11720.27
247.894	11740.28
247.965	11707.7
248.037	11689
248.108	11629.18
248.179	11639.59
248.25	11628.07
248.321	11653.9
248.392	11600.25
248.463	11680.54
248.534	11679.15
248.605	11698.38
248.675	11674.61
248.746	11688.93
248.817	11706.33
248.888	11722.77
248.959	11663.97
249.03	11692.74
249.101	11711.83
249.172	11697.13
249.243	11621.61
249.314	11681.04
249.385	11683.49
249.456	11718.77
249.527	11719.59
249.598	11745.08
249.669	11747.54
249.739	11763.88
249.81	11782.29
249.881	11738.87
249.952	11728.41
250.023	11725.66
250.094	11673.27
250.165	11637.4
250.235	11640.39
250.306	11640.01
250.377	11608.58
250.448	11634.22
250.519	11572.38
250.59	11619
250.66	11621.26
250.731	11697.74
250.802	11705.02
250.873	11728.64
250.944	11752.88
251.014	11747.39
251.085	11845.39
251.156	11877.29
251.227	11924.58
251.297	11969.7
251.368	12028.31
251.439	12076.51
251.51	12123.31
251.58	12109.53
251.651	12106.2
251.722	12159.76
251.792	12114.11
251.863	12119.37
251.934	12184.1
252.005	12291.68
252.075	12296.26
252.146	12338.53
252.217	12383.75
252.287	12420.38
252.358	12424.63
252.429	12491.1
252.499	12484.02
252.57	12481.46
252.641	12524.65
252.711	12531.5
252.782	12488.21
252.852	12561.43
252.923	12565.1
252.994	12580.23
253.064	12631.95
253.135	12613.63
253.205	12588.42
253.276	12670.61
253.347	12735.78
253.417	12711.67
253.488	12698.8
253.558	12693.55
253.629	12697.5
253.699	12710.08
253.77	12739.25
253.841	12730.62
253.911	12738.82
253.982	12754.09
254.052	12788.18
254.123	12784.18
254.193	12787.21
254.264	12935.11
254.334	12896.16
254.405	12854.94
254.475	12827.9
254.546	12838.16
254.616	12904.01
254.687	12940.41
254.757	12953.9
254.827	12950.92
254.898	12973.62
254.968	12978.01
255.039	12959.88
255.109	12994.11
255.18	12967.74
255.25	12898.52
255.321	12932.02
255.391	12897.07
255.461	12978.63
255.532	12891.91
255.602	12898.61
255.673	12843.9
255.743	12796.9
255.813	12741.51
255.884	12793.14
255.954	12826.21
256.024	12885.65
256.095	12881.74
256.165	12843.27
256.235	12865.79
256.306	12849.25
256.376	12897.12
256.446	12935.78
256.517	12977.77
256.587	13023.61
256.657	13046.85
256.728	13071.48
256.798	13080.93
256.868	13073.41
256.938	13044.53
257.009	13093.37
257.079	13117.62
257.149	13214.36
257.219	13150.3
257.29	13184.13
257.36	13125.81
257.43	13168.71
257.5	13106.14
257.571	13098.33
257.641	13130.1
257.711	13090.66
257.781	13124.07
257.852	13137.47
257.922	13074.08
257.992	13069.16
258.062	13058.56
258.132	13098.47
258.202	13103.53
258.273	13111.73
258.343	13184.42
258.413	13168.32
258.483	13172.04
258.553	13140.03
258.623	13115.1
258.693	13146.29
258.764	13209.73
258.834	13277.32
258.904	13289.13
258.974	13275.34
259.044	13282.28
259.114	13309.42
259.184	13340.66
259.254	13355.8
259.324	13309.81
259.394	13365.82
259.464	13445.41
259.535	13451.1
259.605	13447.05
259.675	13433.36
259.745	13471.06
259.815	13447.2
259.885	13450.72
259.955	13559.95
260.025	13562.98
260.095	13578.46
260.165	13605.6
260.235	13667.64
260.305	13658.82
260.375	13626.03
260.445	13722.98
260.515	13791
260.585	13843.4
260.655	13850.77
260.725	13894.64
260.795	13925.73
260.865	13987.29
260.934	13954.08
261.004	13987.63
261.074	13993.85
261.144	14057.77
261.214	14097.34
261.284	14100.09
261.354	14140.49
261.424	14109.11
261.494	14179.35
261.564	14178.72
261.634	14206.49
261.703	14134.03
261.773	14155.63
261.843	14187.01
261.913	14175.35
261.983	14123.67
262.053	14151
262.123	14151.53
262.192	14107.37
262.262	14151.34
262.332	14102.55
262.402	14139.91
262.472	14141.75
262.541	14079.13
262.611	14125.93
262.681	14097.69
262.751	14137.7
262.821	14145.46
262.89	14103.28
262.96	14121.36
263.03	14203.64
263.1	14227.55
263.169	14257.53
263.239	14295.28
263.309	14366.72
263.379	14400.17
