Data from 20250701_urea_2M_exp3_MAYP1162681_16-29-48-678.txt Node
Date: Tue Jul 01 16:29:48 BST 2025
User: adleo
Spectrometer: MAYP116268
Trigger mode: 0
Integration Time (sec): 4.000000E0
Scans to average: 1
Electric dark correction enabled: true
Nonlinearity correction enabled: true
Boxcar width: 10
XAxis mode: Wavelengths
Number of Pixels in Spectrum: 2068
>>>>>Begin Spectral Data<<<<<
179.565	4152.86
179.642	4372.56
179.718	4536.58
179.795	4688.19
179.871	4812.26
179.948	4882.21
180.024	4962.36
180.101	5048.61
180.177	5107.96
180.254	5188.85
180.33	5274.04
180.407	5577.99
180.483	5897.38
180.56	6225.85
180.636	6526.39
180.712	6484.11
180.789	6523.06
180.865	6567.54
180.942	6604.22
181.018	6645.13
181.095	6694.73
181.171	6709.38
181.248	6713.6
181.324	6773.28
181.4	6803.02
181.477	6844
181.553	6895.37
181.63	6974.46
181.706	7037.51
181.782	7064.25
181.859	7067.42
181.935	7088.28
182.011	7074.15
182.088	7138.69
182.164	7206.05
182.24	7256.34
182.317	7291.22
182.393	7284.83
182.469	7336.68
182.546	7384.03
182.622	7394.36
182.698	7376.09
182.775	7423.29
182.851	7474.44
182.927	7445.11
183.003	7420.56
183.08	7400.57
183.156	7431.52
183.232	7425.03
183.308	7379.71
183.385	7410.41
183.461	7478.14
183.537	7481.85
183.613	7526.36
183.69	7489.2
183.766	7449.47
183.842	7480.15
183.918	7496.54
183.995	7542.45
184.071	7552.21
184.147	7532.54
184.223	7497.14
184.299	7543.6
184.375	7497.93
184.452	7516.93
184.528	7651.19
184.604	7694.73
184.68	7741.02
184.756	7768.73
184.832	7778.59
184.908	7797.23
184.985	7791.51
185.061	7730.12
185.137	7761.9
185.213	7720.71
185.289	7731.81
185.365	7708.26
185.441	7698.49
185.517	7751.27
185.593	7736.8
185.669	7730.93
185.745	7765.36
185.822	7829.47
185.898	7795.36
185.974	7835.02
186.05	7808.9
186.126	7731.87
186.202	7704.03
186.278	7685.91
186.354	7648.68
186.43	7673.65
186.506	7668.46
186.582	7668.51
186.658	7692.15
186.734	7620.82
186.81	7629.66
186.886	7639.61
186.962	7682.73
187.038	7665.33
187.114	7628.37
187.19	7658
187.266	7622.57
187.341	7626.66
187.417	7599.4
187.493	7601.85
187.569	7612.29
187.645	7592.43
187.721	7556.84
187.797	7588.47
187.873	7602.17
187.949	7581.99
188.025	7555.14
188.101	7567.06
188.176	7589.9
188.252	7576.59
188.328	7604.31
188.404	7610.36
188.48	7586.62
188.556	7561.57
188.632	7561.04
188.707	7572.3
188.783	7559.64
188.859	7540.62
188.935	7501.09
189.011	7528.59
189.086	7506.24
189.162	7473.35
189.238	7460.18
189.314	7450.38
189.39	7429.7
189.465	7404.13
189.541	7469.09
189.617	7413
189.693	7390.55
189.768	7399.55
189.844	7482.95
189.92	7451.77
189.996	7480.67
190.071	7529.95
190.147	7525.82
190.223	7569.68
190.298	7535.68
190.374	7487.17
190.45	7535.13
190.526	7567.06
190.601	7546.19
190.677	7548.84
190.753	7651.22
190.828	7664.54
190.904	7710.13
190.98	7767.55
191.055	7808.57
191.131	7775.48
191.207	7859.28
191.282	7896.87
191.358	7861.68
191.433	7808.51
191.509	7860.84
191.585	7848.33
191.66	7841.99
191.736	7875.07
191.811	7835.58
191.887	7900.04
191.963	7985.79
192.038	7999.69
192.114	8000.36
192.189	8018.25
192.265	8008.59
192.34	7930.38
192.416	7922.93
192.491	7910.14
192.567	7917.69
192.642	7930.83
192.718	7930.35
192.793	7877.35
192.869	7861.38
192.944	7875.51
193.02	7905.92
193.095	7917.89
193.171	7939.34
193.246	7942.71
193.322	7932.51
193.397	7933.67
193.473	7877.66
193.548	7812.1
193.624	7836.2
193.699	7828.94
193.775	7883.02
193.85	7888.79
193.925	7916.98
194.001	7924.19
194.076	7898.12
194.152	7858.33
194.227	7823.41
194.302	7788.47
194.378	7806.93
194.453	7797.8
194.529	7839.98
194.604	7789
194.679	7766.35
194.755	7697.95
194.83	7742.65
194.905	7731.88
194.981	7767.95
195.056	7742.96
195.131	7765.36
195.207	7762.24
195.282	7727.62
195.357	7657.33
195.433	7715.9
195.508	7671.9
195.583	7694.74
195.659	7744.62
195.734	7766.22
195.809	7765.98
195.884	7798.51
195.96	7799.24
196.035	7854.39
196.11	7839.14
196.185	7884.83
196.261	7898.24
196.336	8016.94
196.411	7961.99
196.486	7983.82
196.561	7954.77
196.637	7988.04
196.712	8052.28
196.787	8051.27
196.862	8112.15
196.937	8148.75
197.013	8173.39
197.088	8209.94
197.163	8286.56
197.238	8343.9
197.313	8346.89
197.388	8399.81
197.464	8512.92
197.539	8552.71
197.614	8529.09
197.689	8572.73
197.764	8634.74
197.839	8707.45
197.914	8681.07
197.989	8765.58
198.065	8812.79
198.14	9000.11
198.215	9094.55
198.29	9129.9
198.365	9182.03
198.44	9216.84
198.515	9319.54
198.59	9367.55
198.665	9467.84
198.74	9497.8
198.815	9511
198.89	9590.34
198.965	9693.23
199.04	9682
199.115	9742.04
199.19	9897
199.265	9908.51
199.34	9939.48
199.415	10066
199.49	10144.93
199.565	10176.43
199.64	10264.05
199.715	10250.99
199.79	10277.53
199.865	10304.03
199.94	10300.9
200.015	10424.19
200.09	10443.94
200.165	10468.17
200.24	10488.65
200.315	10632.13
200.39	10686.14
200.464	10709.12
200.539	10715
200.614	10762.31
200.689	10845.24
200.764	10869.09
200.839	10934.41
200.914	10950.6
200.989	10905.2
201.063	10957.29
201.138	10893.04
201.213	10890.44
201.288	10815.28
201.363	10830.46
201.438	10830.07
201.512	10890.43
201.587	10816.8
201.662	10828.36
201.737	10872.74
201.812	10904.11
201.886	10787.28
201.961	10819.72
202.036	10780.5
202.111	10776.84
202.186	10677.82
202.26	10614.16
202.335	10534.9
202.41	10513.79
202.485	10452.48
202.559	10383.92
202.634	10279.14
202.709	10318.62
202.784	10251.38
202.858	10254.02
202.933	10190.34
203.008	10161.15
203.082	10086.97
203.157	10083.98
203.232	9926.25
203.306	9843.76
203.381	9724.68
203.456	9644.2
203.53	9559.58
203.605	9485.02
203.68	9391.95
203.754	9366.26
203.829	9306.25
203.904	9230.61
203.978	9182.83
204.053	9198.24
204.127	9152.36
204.202	9149.57
204.277	9078.9
204.351	9052.57
204.426	9029.16
204.5	8991.85
204.575	8868.37
204.65	8906.18
204.724	8878.09
204.799	8910.9
204.873	8905.12
204.948	8901.37
205.022	8851.8
205.097	8816.45
205.171	8867.52
205.246	8898.53
205.32	8896.36
205.395	8898.1
205.469	8868.9
205.544	8892.54
205.618	8828.23
205.693	8870.83
205.767	8824.44
205.842	8906.47
205.916	8885.64
205.991	8850.21
206.065	8874.42
206.14	8927.03
206.214	8910.89
206.289	8881.09
206.363	8923.74
206.438	8926
206.512	8953.78
206.586	9026.31
206.661	9057.57
206.735	8983.75
206.81	8982.6
206.884	9036.98
206.958	8990.54
207.033	9050.69
207.107	9073.86
207.181	9192.75
207.256	9169.64
207.33	9242.04
207.405	9284.92
207.479	9354.54
207.553	9383.8
207.628	9323.99
207.702	9373.28
207.776	9348.05
207.851	9360.76
207.925	9416.63
207.999	9402.72
208.073	9396.07
208.148	9404.36
208.222	9362.94
208.296	9475.76
208.371	9544.27
208.445	9584.59
208.519	9686.12
208.593	9724.65
208.668	9712.8
208.742	9716.8
208.816	9720.6
208.89	9771.18
208.965	9766.51
209.039	9796.57
209.113	9858.9
209.187	9937.68
209.261	9919.63
209.336	9990.48
209.41	10068.61
209.484	10071.07
209.558	10155.03
209.632	10201.17
209.707	10241.93
209.781	10317.89
209.855	10373.01
209.929	10430.42
210.003	10449.35
210.077	10450.79
210.151	10632.88
210.226	10757.01
210.3	10859.15
210.374	10948.02
210.448	10958.04
210.522	10993.61
210.596	11030.23
210.67	11057.36
210.744	11233.4
210.818	11358.42
210.892	11430.23
210.966	11410.52
211.041	11470.95
211.115	11461.85
211.189	11551
211.263	11610.28
211.337	11636.97
211.411	11685.8
211.485	11667.09
211.559	11703.86
211.633	11709.45
211.707	11588.42
211.781	11610.44
211.855	11477.71
211.929	11450.63
212.003	11380.64
212.077	11413.32
212.151	11457.03
212.225	11487.78
212.299	11442.95
212.373	11391
212.447	11368.15
212.52	11467.87
212.594	11469.89
212.668	11503.58
212.742	11445.55
212.816	11424.15
212.89	11400.35
212.964	11388.73
213.038	11388.63
213.112	11430.76
213.186	11484.15
213.26	11403.27
213.333	11228.92
213.407	11234.8
213.481	11235.38
213.555	11271.79
213.629	11222.2
213.703	11152.12
213.777	11142
213.85	11057.56
213.924	11177.38
213.998	11173.05
214.072	11136.51
214.146	11079.45
214.219	11052.94
214.293	11027.79
214.367	11016.46
214.441	11038.87
214.515	10989.23
214.588	10894.35
214.662	10757.51
214.736	10661.1
214.81	10673.91
214.883	10699.58
214.957	10655.65
215.031	10590.1
215.105	10488.23
215.178	10415.53
215.252	10373.08
215.326	10259.73
215.4	10166.16
215.473	9958.49
215.547	9860.26
215.621	9788.45
215.694	9781.66
215.768	9672.04
215.842	9595.66
215.915	9520.6
215.989	9396.72
216.063	9329.66
216.136	9300.04
216.21	9269.57
216.284	9278.14
216.357	9247.47
216.431	9198.88
216.504	9187.76
216.578	9246.85
216.652	9263.79
216.725	9241.01
216.799	9242.31
216.873	9221.9
216.946	9229.07
217.02	9188.22
217.093	9150.24
217.167	9040.33
217.24	8947.24
217.314	8919.96
217.387	8870.6
217.461	8815.82
217.535	8840.8
217.608	8772.21
217.682	8741.36
217.755	8757.96
217.829	8699.37
217.902	8681.08
217.976	8657.21
218.049	8607.69
218.123	8526.21
218.196	8522.32
218.27	8482.94
218.343	8408.71
218.417	8406.78
218.49	8383.88
218.563	8431.56
218.637	8447.49
218.71	8526.29
218.784	8558.54
218.857	8588.61
218.931	8612.13
219.004	8627.05
219.077	8638.9
219.151	8661.03
219.224	8650.49
219.298	8639.9
219.371	8689.96
219.444	8655.75
219.518	8670.14
219.591	8689.63
219.665	8800.3
219.738	8817.15
219.811	8795.64
219.885	8846.38
219.958	8885.56
220.031	8889.08
220.105	8917.53
220.178	8928.46
220.251	8898.03
220.325	8918.4
220.398	8939.48
220.471	8963.21
220.544	8999.07
220.618	8978.8
220.691	9010.18
220.764	9030.35
220.838	9067.38
220.911	9054.71
220.984	9140.68
221.057	9175.43
221.131	9204.85
221.204	9100
221.277	9176.37
221.35	9315.43
221.424	9308.59
221.497	9313.6
221.57	9341.61
221.643	9369.35
221.716	9417.27
221.79	9420.64
221.863	9435.19
221.936	9447.76
222.009	9461.81
222.082	9496.15
222.155	9507.51
222.229	9575.86
222.302	9615.59
222.375	9622.33
222.448	9663.75
222.521	9673.91
222.594	9681.04
222.667	9651.49
222.74	9717.5
222.814	9714.27
222.887	9690.81
222.96	9749.67
223.033	9799.67
223.106	9827.26
223.179	9865.03
223.252	9879.68
223.325	9918.44
223.398	9932.46
223.471	9966.27
223.544	10000.37
223.617	10021.47
223.69	10050.94
223.763	10004.36
223.837	10030.03
223.91	10059.61
223.983	10006.3
224.056	9965.89
224.129	9988.39
224.202	10049.15
224.275	10029.98
224.348	9992.17
224.42	9955.12
224.493	9892.75
224.566	9866.69
224.639	9889.37
224.712	9859.64
224.785	9845.38
224.858	9836.66
224.931	9817.15
225.004	9773.81
225.077	9762.88
225.15	9663.68
225.223	9660.64
225.296	9756
225.369	9695.75
225.442	9662.85
225.514	9684.75
225.587	9712.11
225.66	9719.72
225.733	9723.86
225.806	9732.91
225.879	9727.62
225.952	9698.49
226.025	9755.37
226.097	9809.28
226.17	9807.7
226.243	9733.15
226.316	9727.37
226.389	9735.27
226.461	9756.56
226.534	9779.1
226.607	9768.7
226.68	9855.66
226.753	9845.74
226.825	9749.37
226.898	9809.82
226.971	9813.81
227.044	9837.61
227.117	9845.75
227.189	9859.24
227.262	9901.1
227.335	9928.03
227.407	9924.8
227.48	9960.53
227.553	9970.46
227.626	9947.71
227.698	9946.36
227.771	9998.12
227.844	9978.52
227.916	9993.69
227.989	9961.42
228.062	9957.28
228.134	10058.16
228.207	10058.78
228.28	10061.72
228.352	10085.66
228.425	10096.02
228.498	10147.42
228.57	10123.44
228.643	10187.23
228.716	10200.82
228.788	10179.76
228.861	10176.78
228.934	10248.41
229.006	10259.77
229.079	10266.04
229.151	10259.82
229.224	10229.82
229.296	10258.48
229.369	10371.67
229.442	10430.22
229.514	10413.36
229.587	10466.26
229.659	10389.16
229.732	10407.76
229.804	10447.84
229.877	10533.23
229.949	10568.27
230.022	10622.87
230.094	10630
230.167	10619.73
230.239	10568.86
230.312	10562.55
230.384	10640.24
230.457	10640.91
230.529	10650.4
230.602	10650.74
230.674	10661.82
230.747	10706.95
230.819	10734.65
230.892	10609.91
230.964	10608.56
231.037	10638.27
231.109	10623.34
231.181	10671.56
231.254	10637.31
231.326	10629.4
231.399	10599.62
231.471	10567.77
231.544	10487.67
231.616	10529.97
231.688	10539.51
231.761	10525.11
231.833	10517.02
231.905	10426.81
231.978	10424.06
232.05	10416.59
232.122	10424.78
232.195	10396.12
232.267	10440.93
232.339	10421.7
232.412	10498.83
232.484	10471.17
232.556	10446.7
232.629	10523.09
232.701	10536.82
232.773	10551.71
232.846	10541.16
232.918	10559.18
232.99	10578.46
233.062	10621.49
233.135	10644.37
233.207	10604.04
233.279	10661.89
233.351	10694.85
233.424	10698.46
233.496	10670.51
233.568	10765.64
233.64	10726.03
233.713	10744.78
233.785	10737.84
233.857	10755.33
233.929	10707.63
234.001	10782.57
234.074	10854.64
234.146	10783.65
234.218	10787.12
234.29	10793.67
234.362	10781.2
234.434	10727.08
234.507	10691.13
234.579	10640.97
234.651	10620.11
234.723	10653.7
234.795	10676.29
234.867	10676.25
234.939	10749.93
235.012	10775.08
235.084	10777.97
235.156	10820.27
235.228	10809.19
235.3	10802.73
235.372	10821.48
235.444	10881.47
235.516	10797.75
235.588	10809.7
235.66	10831.05
235.732	10799.68
235.804	11005.78
235.876	11055.65
235.948	11130.59
236.02	11152.75
236.092	11170.87
236.164	11192.17
236.236	11196.89
236.308	11195.93
236.38	11227.35
236.452	11199.3
236.524	11218.28
236.596	11287.99
236.668	11327.36
236.74	11353
236.812	11384.76
236.884	11418.78
236.956	11429.39
237.028	11424.91
237.1	11409.2
237.172	11482.36
237.244	11570.17
237.316	11441.56
237.388	11428.79
237.46	11404.79
237.532	11478.67
237.604	11474.86
237.675	11558.59
237.747	11610.21
237.819	11605.48
237.891	11614.35
237.963	11604.67
238.035	11608.81
238.107	11486.19
238.178	11556.18
238.25	11563.99
238.322	11657.98
238.394	11617.79
238.466	11623.86
238.538	11678.46
238.609	11724.39
238.681	11670.98
238.753	11650.69
238.825	11676.29
238.897	11716.62
238.968	11809.08
239.04	11785.46
239.112	11909.76
239.184	11866.09
239.255	11871.48
239.327	11906.52
239.399	11933.46
239.471	11997.33
239.542	12039.45
239.614	12125.92
239.686	12043.64
239.758	12107.69
239.829	12077.81
239.901	12150.06
239.973	12165.1
240.044	12198.02
240.116	12220.29
240.188	12242.89
240.259	12256.82
240.331	12250.8
240.403	12294.85
240.474	12242.6
240.546	12236.86
240.618	12173.96
240.689	12176.56
240.761	12192.9
240.833	12268.39
240.904	12268.77
240.976	12270.7
241.048	12293.74
241.119	12330.86
241.191	12381.57
241.262	12454.31
241.334	12461.59
241.405	12468.77
241.477	12480
241.549	12500.06
241.62	12528.84
241.692	12583.16
241.763	12662.12
241.835	12695.14
241.906	12718.14
241.978	12696.49
242.049	12771.79
242.121	12845.39
242.192	12929.8
242.264	12900.45
242.335	12851.03
242.407	12903
242.478	12911.19
242.55	12933.22
242.621	12914.95
242.693	12913.7
242.764	12909.6
242.836	12912.69
242.907	12952.41
242.979	12993.82
243.05	13014.79
243.122	13043.47
243.193	13045.45
243.264	12967.35
243.336	12971.64
243.407	13009.25
243.479	13099.53
243.55	13123.78
243.622	13137.86
243.693	13134.73
243.764	13207.23
243.836	13194.4
243.907	13188.43
243.978	13194.5
244.05	13224.24
244.121	13180.04
244.192	13235.57
244.264	13183.94
244.335	13202.02
244.407	13147.07
244.478	13165.19
244.549	13161.77
244.62	13121.47
244.692	13124.7
244.763	13185.05
244.834	13177.29
244.906	13156.66
244.977	13177.34
245.048	13238.13
245.119	13223.13
245.191	13197.25
245.262	13137.38
245.333	13217.64
245.405	13237.5
245.476	13276.21
245.547	13299.01
245.618	13364.18
245.689	13376.57
245.761	13418.61
245.832	13429.07
245.903	13492.51
245.974	13524.13
246.045	13548.52
246.117	13642.91
246.188	13627.92
246.259	13606.95
246.33	13631.39
246.401	13651.97
246.473	13624.69
246.544	13611.96
246.615	13677.19
246.686	13684.8
246.757	13770.37
246.828	13754.27
246.899	13846.05
246.97	13817.99
247.042	13812.64
247.113	13858.25
247.184	13969.3
247.255	13972.34
247.326	14004.35
247.397	14013.27
247.468	14028.02
247.539	14040.51
247.61	13991.87
247.681	14042.77
247.752	14104.14
247.823	14084.52
247.894	14101.92
247.965	14070.73
248.037	14062.25
248.108	14004.98
248.179	14025.27
248.25	14022.19
248.321	14053.57
248.392	13997.8
248.463	14088.86
248.534	14089.82
248.605	14125.06
248.675	14085.06
248.746	14111.67
248.817	14136.78
248.888	14158.33
248.959	14103.9
249.03	14138.18
249.101	14151.87
249.172	14132.34
249.243	14055.07
249.314	14129.07
249.385	14141.21
249.456	14180.98
249.527	14174.19
249.598	14204.36
249.669	14200.99
249.739	14221.19
249.81	14245.24
249.881	14198.53
249.952	14190.19
250.023	14186.48
250.094	14120.1
250.165	14089.97
250.235	14082.5
250.306	14085.11
250.377	14051.8
250.448	14078.21
250.519	14012.89
250.59	14078.5
250.66	14085.97
250.731	14169.9
250.802	14164.55
250.873	14193.62
250.944	14216.56
251.014	14207.84
251.085	14312.97
251.156	14346.13
251.227	14414.68
251.297	14498.69
251.368	14708.51
251.439	14800.96
251.51	14861.94
251.58	14857.7
251.651	14854.13
251.722	14918.14
251.792	14868.83
251.863	14879.48
251.934	14955.79
252.005	15074.08
252.075	15084.01
252.146	15143.45
252.217	15192.33
252.287	15244.1
252.358	15241.78
252.429	15330.77
252.499	15331.34
252.57	15339.87
252.641	15404.37
252.711	15395.26
252.782	15321.95
252.852	15254.62
252.923	15216.06
252.994	15239.15
253.064	15301.04
253.135	15287.31
253.205	15266.72
253.276	15346.89
253.347	15410.71
253.417	15378.22
253.488	15360.29
253.558	15345.06
253.629	15338.5
253.699	15358.36
253.77	15385.98
253.841	15386.17
253.911	15392.05
253.982	15416.64
254.052	15450.76
254.123	15451.92
254.193	15460.69
254.264	15606.2
254.334	15573.13
254.405	15540.12
254.475	15499.29
254.546	15498.42
254.616	15561.9
254.687	15598.73
254.757	15633.82
254.827	15638.64
254.898	15679.76
254.968	15698.65
255.039	15684.67
255.109	15736.25
255.18	15701.49
255.25	15629.43
255.321	15675.51
255.391	15630.01
255.461	15724.97
255.532	15635.13
255.602	15626.02
255.673	15572.37
255.743	15538.2
255.813	15470.72
255.884	15528.94
255.954	15579.94
256.024	15664.77
256.095	15674.41
256.165	15639.61
256.235	15662.6
256.306	15645.87
256.376	15696.62
256.446	15729.98
256.517	15776.88
256.587	15816.4
256.657	15846.53
256.728	15880.61
256.798	15877.86
256.868	15878.05
256.938	15844.7
257.009	15901.28
257.079	15941.53
257.149	16045.5
257.219	15977.88
257.29	16024.1
257.36	15955.66
257.43	15994.51
257.5	15924.47
257.571	15920.47
257.641	15967.81
257.711	15924.62
257.781	15963.42
257.852	15982.17
257.922	15925.78
257.992	15930.12
258.062	15926.4
258.132	15975.57
258.202	15971.95
258.273	15997.98
258.343	16081.07
258.413	16068.2
258.483	16072.35
258.553	16051.33
258.623	16029.79
258.693	16067.29
258.764	16134.57
258.834	16212.75
258.904	16228.18
258.974	16213.28
259.044	16220.27
259.114	16248.71
259.184	16286.45
259.254	16301.87
259.324	16249.48
259.394	16300.09
259.464	16388.05
259.535	16409.93
259.605	16404
259.675	16400.77
259.745	16437.59
259.815	16415.28
259.885	16415.08
259.955	16538.65
260.025	16530.12
260.095	16547.08
260.165	16584.77
260.235	16663.33
260.305	16647.9
260.375	16622.31
260.445	16723.48
260.515	16789.65
260.585	16849.56
260.655	16855.82
260.725	16904.98
260.795	16950.19
260.865	17031.15
260.934	16995.68
261.004	17020.12
261.074	17028.31
261.144	17098.63
261.214	17138.97
261.284	17136.9
261.354	17183.5
261.424	17138.5
261.494	17215.32
261.564	17223.9
261.634	17248.62
261.703	17175.56
261.773	17215.32
261.843	17251.95
261.913	17246.12
261.983	17196.48
262.053	17206.94
262.123	17211.28
262.192	17162.45
262.262	17202.89
262.332	17143.85
262.402	17175.42
