Data from 20250701_urea_2M_exp3_MAYP1162681_08-49-51-917.txt Node
Date: Wed Jul 02 08:49:51 BST 2025
User: adleo
Spectrometer: MAYP116268
Trigger mode: 0
Integration Time (sec): 4.000000E0
Scans to average: 1
Electric dark correction enabled: true
Nonlinearity correction enabled: true
Boxcar width: 10
XAxis mode: Wavelengths
Number of Pixels in Spectrum: 2068
>>>>>Begin Spectral Data<<<<<
179.565	3823.14
179.642	4017.39
179.718	4170.59
179.795	4304.34
179.871	4422.82
179.948	4486.08
180.024	4560.55
180.101	4642.42
180.177	4698.6
180.254	4777.77
180.33	4859.05
180.407	5138.54
180.483	5434.46
180.56	5734.12
180.636	6008.61
180.712	5967.9
180.789	6002.98
180.865	6044.79
180.942	6077.12
181.018	6111.91
181.095	6160.46
181.171	6180.66
181.248	6187.14
181.324	6241.93
181.4	6273.61
181.477	6310.63
181.553	6356.92
181.63	6428.45
181.706	6489.01
181.782	6518.08
181.859	6519.43
181.935	6537.05
182.011	6522.65
182.088	6581.09
182.164	6650.23
182.24	6696.02
182.317	6729.57
182.393	6718.48
182.469	6771.41
182.546	6817.66
182.622	6832.98
182.698	6815.49
182.775	6857.66
182.851	6903.48
182.927	6875.67
183.003	6858.77
183.08	6840.18
183.156	6872.79
183.232	6864.34
183.308	6820.96
183.385	6839.45
183.461	6900.31
183.537	6904.59
183.613	6948.69
183.69	6918.81
183.766	6878.72
183.842	6906.3
183.918	6922.05
183.995	6971.09
184.071	6977.63
184.147	6963.65
184.223	6933.55
184.299	6975.21
184.375	6932.94
184.452	6958.66
184.528	7088.85
184.604	7128.91
184.68	7166.95
184.756	7189.64
184.832	7204.83
184.908	7224.61
184.985	7227.01
185.061	7171.14
185.137	7198.82
185.213	7157.36
185.289	7165
185.365	7144.3
185.441	7138.29
185.517	7189.16
185.593	7174.98
185.669	7167.29
185.745	7197.19
185.822	7250.64
185.898	7224.1
185.974	7260.27
186.05	7231.76
186.126	7158.42
186.202	7129.84
186.278	7115.57
186.354	7085.15
186.43	7107.12
186.506	7098.96
186.582	7099.53
186.658	7124.46
186.734	7061.87
186.81	7070.08
186.886	7081.22
186.962	7122.1
187.038	7114.27
187.114	7081.72
187.19	7111.52
187.266	7077.31
187.341	7078.71
187.417	7053.87
187.493	7055.31
187.569	7064.78
187.645	7050.22
187.721	7010.04
187.797	7037.66
187.873	7055.25
187.949	7035.89
188.025	7017.62
188.101	7024.68
188.176	7042.22
188.252	7028.24
188.328	7052.2
188.404	7051.24
188.48	7031.93
188.556	7010.49
188.632	7011.12
188.707	7012.8
188.783	7003.09
188.859	6986.82
188.935	6945.92
189.011	6972.25
189.086	6942.66
189.162	6914.99
189.238	6900.53
189.314	6888.71
189.39	6864.89
189.465	6843.6
189.541	6901.5
189.617	6842.76
189.693	6826.09
189.768	6844.69
189.844	6922.23
189.92	6895.54
189.996	6928.64
190.071	6963.72
190.147	6959.34
190.223	6983.37
190.298	6961.22
190.374	6912.17
190.45	6954.52
190.526	6985.85
190.601	6966.39
190.677	6971.91
190.753	7068.56
190.828	7080.47
190.904	7139.3
190.98	7192.02
191.055	7228.84
191.131	7199.47
191.207	7272.68
191.282	7303.95
191.358	7258.11
191.433	7208.39
191.509	7251.8
191.585	7237.58
191.66	7240.41
191.736	7268.86
191.811	7238.68
191.887	7288.15
191.963	7371.63
192.038	7393.07
192.114	7395.76
192.189	7407.87
192.265	7402.15
192.34	7326.11
192.416	7325.05
192.491	7309.52
192.567	7321.31
192.642	7323.23
192.718	7321.36
192.793	7279.83
192.869	7269.02
192.944	7288.85
193.02	7316.16
193.095	7327.31
193.171	7351.87
193.246	7350.24
193.322	7338.6
193.397	7346.72
193.473	7301.34
193.548	7237.35
193.624	7254.37
193.699	7245.77
193.775	7303.09
193.85	7308.08
193.925	7333.8
194.001	7329.43
194.076	7298.77
194.152	7266.26
194.227	7242.27
194.302	7210.33
194.378	7223.79
194.453	7209.72
194.529	7248.89
194.604	7200.16
194.679	7179.54
194.755	7113.11
194.83	7158.03
194.905	7150.2
194.981	7177.79
195.056	7151.66
195.131	7173.57
195.207	7162.02
195.282	7132.48
195.357	7062.09
195.433	7112.4
195.508	7076.45
195.583	7105.81
195.659	7152.24
195.734	7172.29
195.809	7170.22
195.884	7202.12
195.96	7206.97
196.035	7262.42
196.11	7246.27
196.185	7284.91
196.261	7301.19
196.336	7412.31
196.411	7361.72
196.486	7382.05
196.561	7358.64
196.637	7390.11
196.712	7445.22
196.787	7462.68
196.862	7517.7
196.937	7558.31
197.013	7580.92
197.088	7610.67
197.163	7677.63
197.238	7740.76
197.313	7739.32
197.388	7784.71
197.464	7890.54
197.539	7919.15
197.614	7899.2
197.689	7940.37
197.764	7995.74
197.839	8063.26
197.914	8036.18
197.989	8109.05
198.065	8155.94
198.14	8333.47
198.215	8429.01
198.29	8468.24
198.365	8508.71
198.44	8546.23
198.515	8637.43
198.59	8688.45
198.665	8784.21
198.74	8816.57
198.815	8823.98
198.89	8902.57
198.965	9007.09
199.04	8990.77
199.115	9050.1
199.19	9196.66
199.265	9204.84
199.34	9239.6
199.415	9353.51
199.49	9429.27
199.565	9463.64
199.64	9545.11
199.715	9529.12
199.79	9550.06
199.865	9570.29
199.94	9568.46
200.015	9673.16
200.09	9693.63
200.165	9714.48
200.24	9733.65
200.315	9864.62
200.39	9913.65
200.464	9935.47
200.539	9939.71
200.614	9995.43
200.689	10077.36
200.764	10098.52
200.839	10165.63
200.914	10185.57
200.989	10151.22
201.063	10200.4
201.138	10141.14
201.213	10137.68
201.288	10076.7
201.363	10093.89
201.438	10094.71
201.512	10146.57
201.587	10090.54
201.662	10101.48
201.737	10141.27
201.812	10170.46
201.886	10062.13
201.961	10092.15
202.036	10047.66
202.111	10034.7
202.186	9934.13
202.26	9876.61
202.335	9800.02
202.41	9773.39
202.485	9711.95
202.559	9642.55
202.634	9549.56
202.709	9582.62
202.784	9521.28
202.858	9518.15
202.933	9453.67
203.008	9430.94
203.082	9364.02
203.157	9353.66
203.232	9205.39
203.306	9131.17
203.381	9017.58
203.456	8942.47
203.53	8862.7
203.605	8798.66
203.68	8721.04
203.754	8696.28
203.829	8642.02
203.904	8571.38
203.978	8528.44
204.053	8546.11
204.127	8504.2
204.202	8504.15
204.277	8436.84
204.351	8412.15
204.426	8385
204.5	8357.05
204.575	8237.87
204.65	8273.68
204.724	8250.28
204.799	8276.87
204.873	8265.65
204.948	8261.75
205.022	8215.06
205.097	8180.97
205.171	8222.39
205.246	8247.7
205.32	8244.63
205.395	8241.26
205.469	8213.18
205.544	8234.65
205.618	8171.19
205.693	8210.02
205.767	8164.27
205.842	8241.69
205.916	8219.32
205.991	8186.56
206.065	8206.81
206.14	8263.05
206.214	8245.77
206.289	8219.25
206.363	8261.68
206.438	8270.73
206.512	8301.28
206.586	8367.23
206.661	8404.97
206.735	8333.47
206.81	8335.88
206.884	8386.67
206.958	8342.66
207.033	8405.95
207.107	8430.02
207.181	8538.7
207.256	8515.17
207.33	8579.69
207.405	8625.59
207.479	8694.35
207.553	8724.57
207.628	8668.01
207.702	8703.37
207.776	8683.78
207.851	8694.22
207.925	8748.77
207.999	8740.25
208.073	8725.33
208.148	8737.99
208.222	8690.05
208.296	8798.47
208.371	8852.26
208.445	8894.24
208.519	8995.87
208.593	9032.17
208.668	9022.78
208.742	9034.77
208.816	9040.5
208.89	9086.01
208.965	9076.95
209.039	9104.64
209.113	9159.14
209.187	9227.78
209.261	9217.63
209.336	9284.84
209.41	9356.25
209.484	9354.03
209.558	9424.05
209.632	9471.99
209.707	9509.27
209.781	9589.29
209.855	9646.65
209.929	9705.92
210.003	9723.55
210.077	9717.82
210.151	9876.06
210.226	9991.01
210.3	10084.7
210.374	10169.2
210.448	10177.87
210.522	10216.36
210.596	10245.94
210.67	10274.75
210.744	10430.45
210.818	10548.78
210.892	10622.02
210.966	10601.5
211.041	10655.36
211.115	10647.56
211.189	10732.4
211.263	10786.02
211.337	10802.59
211.411	10849.48
211.485	10835.89
211.559	10876.07
211.633	10886.13
211.707	10785.31
211.781	10810.18
211.855	10681.62
211.929	10651.95
212.003	10589.59
212.077	10617.88
212.151	10661.49
212.225	10696.09
212.299	10661.77
212.373	10608.96
212.447	10583.52
212.52	10683.11
212.594	10690.05
212.668	10725.32
212.742	10663.26
212.816	10644.28
212.89	10626.69
212.964	10617.15
213.038	10614.84
213.112	10653.68
213.186	10698.91
213.26	10619.69
213.333	10454.98
213.407	10465.48
213.481	10464.47
213.555	10503.03
213.629	10450.9
213.703	10387
213.777	10377.85
213.85	10308.17
213.924	10420.31
213.998	10415.39
214.072	10379.39
214.146	10323.79
214.219	10305.53
214.293	10292.48
214.367	10280.34
214.441	10297.44
214.515	10244.58
214.588	10153.3
214.662	10019.49
214.736	9931.88
214.81	9941.31
214.883	9962.25
214.957	9917.43
215.031	9859.71
215.105	9758.89
215.178	9695.56
215.252	9652.7
215.326	9537.5
215.4	9449.61
215.473	9256.94
215.547	9162.39
215.621	9090.47
215.694	9080.55
215.768	8975.73
215.842	8896.69
215.915	8825.32
215.989	8712.32
216.063	8651.6
216.136	8629.79
216.21	8602.7
216.284	8614.59
216.357	8589.13
216.431	8537.49
216.504	8527.92
216.578	8585.97
216.652	8598.47
216.725	8575.37
216.799	8581.34
216.873	8564.26
216.946	8563.87
217.02	8533.58
217.093	8502.3
217.167	8403.85
217.24	8323.71
217.314	8290.1
217.387	8253.94
217.461	8205.69
217.535	8226.81
217.608	8162.06
217.682	8128.09
217.755	8144.35
217.829	8083.72
217.902	8066.59
217.976	8049.13
218.049	7997.33
218.123	7918.64
218.196	7917.2
218.27	7880.93
218.343	7809.18
218.417	7801.2
218.49	7777.83
218.563	7817.12
218.637	7827.9
218.71	7897.74
218.784	7926.56
218.857	7963.59
218.931	7979.74
219.004	7991.33
219.077	8006.78
219.151	8029.72
219.224	8022.17
219.298	8013.99
219.371	8053.78
219.444	8012.67
219.518	8026.52
219.591	8048.59
219.665	8154.83
219.738	8171.37
219.811	8150.75
219.885	8190.49
219.958	8225.95
220.031	8229.31
220.105	8248.7
220.178	8253.08
220.251	8228.39
220.325	8248.85
220.398	8263.38
220.471	8286.85
220.544	8321.64
220.618	8295.02
220.691	8315.04
220.764	8334.95
220.838	8367.39
220.911	8358.34
220.984	8443.72
221.057	8484.29
221.131	8508.34
221.204	8410.18
221.277	8482.04
221.35	8612.84
221.424	8612.7
221.497	8624.97
221.57	8653.06
221.643	8684.31
221.716	8734.85
221.79	8740.19
221.863	8754.97
221.936	8762.53
222.009	8777.68
222.082	8807.44
222.155	8817.35
222.229	8886.82
222.302	8919.74
222.375	8925.27
222.448	8968.12
222.521	8973.51
222.594	8973.12
222.667	8944.41
222.74	8998.26
222.814	8991.71
222.887	8968.16
222.96	9027.81
223.033	9073.03
223.106	9101.37
223.179	9135.9
223.252	9147.65
223.325	9180.24
223.398	9191.17
223.471	9218.56
223.544	9238.1
223.617	9255.44
223.69	9284.03
223.763	9248.25
223.837	9272.47
223.91	9297.12
223.983	9240.71
224.056	9207.02
224.129	9228.01
224.202	9290.08
224.275	9283.2
224.348	9253.49
224.42	9222.92
224.493	9155.85
224.566	9131
224.639	9151.61
224.712	9122.32
224.785	9102.68
224.858	9095.36
224.931	9072.49
225.004	9029.6
225.077	9032.82
225.15	8938.11
225.223	8938.06
225.296	9020.43
225.369	8955.3
225.442	8924.15
225.514	8944.84
225.587	8965.39
225.66	8971.17
225.733	8969.44
225.806	8979.64
225.879	8973.87
225.952	8944.42
226.025	8990.82
226.097	9044.09
226.17	9031.53
226.243	8958.9
226.316	8957.31
226.389	8961.16
226.461	8988.46
226.534	9010.89
226.607	8990.68
226.68	9077.35
226.753	9071.72
226.825	8984.54
226.898	9047.01
226.971	9049.8
227.044	9071.85
227.117	9079.74
227.189	9097.9
227.262	9129.1
227.335	9144.37
227.407	9132.96
227.48	9162.42
227.553	9178.02
227.626	9157.78
227.698	9166.4
227.771	9210.67
227.844	9189.2
227.916	9205.38
227.989	9169.89
228.062	9172.83
228.134	9267.6
228.207	9263.02
228.28	9255.08
228.352	9270.68
228.425	9281.9
228.498	9330.92
228.57	9310.27
228.643	9367.05
228.716	9363.1
228.788	9351.06
228.861	9344.95
228.934	9416.25
229.006	9424.44
229.079	9423.52
229.151	9405.84
229.224	9368.16
229.296	9394.54
229.369	9499.16
229.442	9545.5
229.514	9527.93
229.587	9569.63
229.659	9495.27
229.732	9508.61
229.804	9549.97
229.877	9634.51
229.949	9667.22
230.022	9715.02
230.094	9717.62
230.167	9702.78
230.239	9657.95
230.312	9652.13
230.384	9727.86
230.457	9716.06
230.529	9728.82
230.602	9731.37
230.674	9747.51
230.747	9796.41
230.819	9828.34
230.892	9704.67
230.964	9706.83
231.037	9737.88
231.109	9723.77
231.181	9764.55
231.254	9739.18
231.326	9727.81
231.399	9695.62
231.471	9666.43
231.544	9589.79
231.616	9637.84
231.688	9655.33
231.761	9649.79
231.833	9637.8
231.905	9547.43
231.978	9555.04
232.05	9544.11
232.122	9553.17
232.195	9522.39
232.267	9557.02
232.339	9536.26
232.412	9606.7
232.484	9581.02
232.556	9549.74
232.629	9625.18
232.701	9644.69
232.773	9652.01
232.846	9639.78
232.918	9650.86
232.99	9662.32
233.062	9708.08
233.135	9713.96
233.207	9672.72
233.279	9712.73
233.351	9747.31
233.424	9752.36
233.496	9724.77
233.568	9811.09
233.64	9766.73
233.713	9783.16
233.785	9776.08
233.857	9788.07
233.929	9735.34
234.001	9804.05
234.074	9867.36
234.146	9794.13
234.218	9792.59
234.29	9788.79
234.362	9771.46
234.434	9718.03
234.507	9683.6
234.579	9623.54
234.651	9613.67
234.723	9649.89
234.795	9675.13
234.867	9662.03
234.939	9723.68
235.012	9741.02
235.084	9742.37
235.156	9778.91
235.228	9758.93
235.3	9745.06
235.372	9754.45
235.444	9814.93
235.516	9733.7
235.588	9748.44
235.66	9768.57
235.732	9733.17
235.804	9934.75
235.876	9977.17
235.948	10047.02
236.02	10065.56
236.092	10082.13
236.164	10094.55
236.236	10092.43
236.308	10086.85
236.38	10119.55
236.452	10094.12
236.524	10115.36
236.596	10180.86
236.668	10222.58
236.74	10248.87
236.812	10280.38
236.884	10314.25
236.956	10328.27
237.028	10321.91
237.1	10302.83
237.172	10370.2
237.244	10459.27
237.316	10338.05
237.388	10329.09
237.46	10304.95
237.532	10362.04
237.604	10354.33
237.675	10428.15
237.747	10473.92
237.819	10465.98
237.891	10468.43
237.963	10451.19
238.035	10446.71
238.107	10330.38
238.178	10396.31
238.25	10405.03
238.322	10499.92
238.394	10451.07
238.466	10453.09
238.538	10504.97
238.609	10545.63
238.681	10492.19
238.753	10465.79
238.825	10485.3
238.897	10514.4
238.968	10599.8
239.04	10591.75
239.112	10708.77
239.184	10668.78
239.255	10660.39
239.327	10695.51
239.399	10722.97
239.471	10779.53
239.542	10811.91
239.614	10882.35
239.686	10791.27
239.758	10851.89
239.829	10812.51
239.901	10887.96
239.973	10903.14
240.044	10929.16
240.116	10942.17
240.188	10956.82
240.259	10973.54
240.331	10970.26
240.403	11006.98
240.474	10953.38
240.546	10936.03
240.618	10873.68
240.689	10872.57
240.761	10892.66
240.833	10958.45
240.904	10955.89
240.976	10959.51
241.048	10983.31
241.119	11020.71
241.191	11074.49
241.262	11133.53
241.334	11135.32
241.405	11135.56
241.477	11137.63
241.549	11147.85
241.62	11175.85
241.692	11227.65
241.763	11296.24
241.835	11312.05
241.906	11329.3
241.978	11304.96
242.049	11372.82
242.121	11440.09
242.192	11512.48
242.264	11482.74
242.335	11435.61
242.407	11479.51
242.478	11481.25
242.55	11504.62
242.621	11483.99
242.693	11480.67
242.764	11474.11
242.836	11482.69
242.907	11525.45
242.979	11561.49
243.05	11587.47
243.122	11607.52
243.193	11598.7
243.264	11515.8
243.336	11517.15
243.407	11563.86
243.479	11648.1
243.55	11668.16
243.622	11679.77
243.693	11679.48
243.764	11754.38
243.836	11731.16
243.907	11720.41
243.978	11728.5
244.05	11756.85
244.121	11709.38
244.192	11750.92
244.264	11699.4
244.335	11704.02
244.407	11645.9
244.478	11662.43
244.549	11656.31
244.62	11616.02
244.692	11617.99
244.763	11669.99
244.834	11660.45
244.906	11633.02
244.977	11651.2
245.048	11703.31
245.119	11682
245.191	11653.37
245.262	11583.05
245.333	11668.26
245.405	11690
245.476	11724.99
245.547	11730.67
245.618	11793.81
245.689	11808.56
245.761	11854.2
245.832	11869.19
245.903	11914.84
245.974	11948.24
246.045	11955.09
246.117	12042.38
246.188	12029.46
246.259	12012.93
246.33	12045.37
246.401	12060.98
246.473	12025.55
246.544	12011.28
246.615	12070.43
246.686	12078
246.757	12157.42
246.828	12131.01
246.899	12214.65
246.97	12183.95
247.042	12178.74
247.113	12218.41
247.184	12310.1
247.255	12305.76
247.326	12325.96
247.397	12330.63
247.468	12331.02
247.539	12350.69
247.61	12306.39
247.681	12347.6
247.752	12394.11
247.823	12359.31
247.894	12376.52
247.965	12345.82
248.037	12337.77
248.108	12277.61
248.179	12283.59
248.25	12271.68
248.321	12299.25
248.392	12240.68
248.463	12323.39
248.534	12320.6
248.605	12341.09
248.675	12309.32
248.746	12322.77
248.817	12348.36
248.888	12375.79
248.959	12325.08
249.03	12349.86
249.101	12361.62
249.172	12349.81
249.243	12275.78
249.314	12345.05
249.385	12349.82
249.456	12381.97
249.527	12378.59
249.598	12413.39
249.669	12412.96
249.739	12432.14
249.81	12448.15
249.881	12408.19
249.952	12407.51
250.023	12408.77
250.094	12354.34
250.165	12318.38
250.235	12318.96
250.306	12318.91
250.377	12284.83
250.448	12319.87
250.519	12252.1
250.59	12305.03
250.66	12302.14
250.731	12381.23
250.802	12376.65
250.873	12395.31
250.944	12418.98
251.014	12400.66
251.085	12489.6
251.156	12519.44
251.227	12571.79
251.297	12625.73
251.368	12678.66
251.439	12711.58
251.51	12774.88
251.58	12763.07
251.651	12761.43
251.722	12813.2
251.792	12761.29
251.863	12768.8
251.934	12827.86
252.005	12945.86
252.075	12955.55
252.146	13013.92
252.217	13067.38
252.287	13107.44
252.358	13115.54
252.429	13191.66
252.499	13199.04
252.57	13211.38
252.641	13270.28
252.711	13272.16
252.782	13228.49
252.852	13307.16
252.923	13314.97
252.994	13316.47
253.064	13370.02
253.135	13351.65
253.205	13331.17
253.276	13408.54
253.347	13474.96
253.417	13451.53
253.488	13428.39
253.558	13418.22
253.629	13410.99
253.699	13424.92
253.77	13456.16
253.841	13454.04
253.911	13466.43
253.982	13476.21
254.052	13503.74
254.123	13503.84
254.193	13510.78
254.264	13648.79
254.334	13609.84
254.405	13577.06
254.475	13541.38
254.546	13544.42
254.616	13613.89
254.687	13639.82
254.757	13663.49
254.827	13655.49
254.898	13678.92
254.968	13685.71
255.039	13664.12
255.109	13701
255.18	13669.18
255.25	13594.85
255.321	13620.97
255.391	13576.91
255.461	13663.78
255.532	13578.65
255.602	13573.93
255.673	13521.04
255.743	13484.7
255.813	13413.55
255.884	13452.98
255.954	13495.26
256.024	13567.71
256.095	13573.54
256.165	13539.56
256.235	13559.32
256.306	13551.27
256.376	13604.01
256.446	13647.2
256.517	13686.63
256.587	13734.26
256.657	13755.18
256.728	13782.9
256.798	13799.68
256.868	13797.85
256.938	13765.84
257.009	13814.19
257.079	13849.14
257.149	13946.08
257.219	13878.88
257.29	13922.94
257.36	13871.46
257.43	13908.57
257.5	13840.75
257.571	13825.08
257.641	13868.08
257.711	13835.06
257.781	13866.3
257.852	13881.43
257.922	13819.49
257.992	13822.38
258.062	13812.74
258.132	13859.26
258.202	13860.9
258.273	13870.93
258.343	13936.73
258.413	13925.78
258.483	13928.48
258.553	13890.88
258.623	13868.42
258.693	13907.66
258.764	13976.5
258.834	14048.76
258.904	14069.15
258.974	14056.71
259.044	14064.86
259.114	14091.9
259.184	14116.78
259.254	14121.79
259.324	14064.62
259.394	14118.8
259.464	14193.76
259.535	14208.51
259.605	14195.69
259.675	14193.62
259.745	14228.9
259.815	14212.37
259.885	14214.06
259.955	14328.58
260.025	14320.68
260.095	14325.64
260.165	14350.27
260.235	14409.95
260.305	14392.88
260.375	14353.36
260.445	14449.33
260.515	14521.11
260.585	14570.42
260.655	14581.12
260.725	14628.08
260.795	14668.18
260.865	14731.28
260.934	14705.54
261.004	14732
261.074	14737.84
261.144	14798
261.214	14829.81
261.284	14832.22
261.354	14874.64
261.424	14829.77
261.494	14907.72
261.564	14920.01
261.634	14950.52
261.703	14884
261.773	14917.17
261.843	14958.14
261.913	14946.28
261.983	14887.96
262.053	14907.58
262.123	14904.78
262.192	14855.95
262.262	14897.4
262.332	14849.3
262.402	14881.25
262.472	14893.26
262.541	14834.4
262.611	14884.72
262.681	14857.2
262.751	14896.58
262.821	14901.88
262.89	14877.3
262.96	14893.88
