Data from 20250701_urea_2M_exp3_MAYP1162681_21-29-51-241.txt Node
Date: Tue Jul 01 21:29:51 BST 2025
User: adleo
Spectrometer: MAYP116268
Trigger mode: 0
Integration Time (sec): 4.000000E0
Scans to average: 1
Electric dark correction enabled: true
Nonlinearity correction enabled: true
Boxcar width: 10
XAxis mode: Wavelengths
Number of Pixels in Spectrum: 2068
>>>>>Begin Spectral Data<<<<<
179.565	3885.94
179.642	4094.14
179.718	4250.08
179.795	4386.47
179.871	4503.41
179.948	4575.12
180.024	4652.62
180.101	4741.94
180.177	4797.42
180.254	4881.35
180.33	4961.09
180.407	5245.96
180.483	5550.71
180.56	5851.81
180.636	6130.32
180.712	6084.27
180.789	6126.36
180.865	6172.93
180.942	6203.88
181.018	6245.05
181.095	6295.91
181.171	6314.3
181.248	6307.77
181.324	6366.65
181.4	6396.27
181.477	6434.83
181.553	6477.1
181.63	6547.26
181.706	6595.92
181.782	6618.85
181.859	6617.12
181.935	6632.63
182.011	6617.12
182.088	6672.98
182.164	6747.18
182.24	6800.65
182.317	6834.26
182.393	6827.25
182.469	6875.43
182.546	6921.2
182.622	6936.38
182.698	6919.32
182.775	6964.29
182.851	7019.58
182.927	6991.95
183.003	6975.96
183.08	6955.74
183.156	6992.73
183.232	6982.2
183.308	6942.76
183.385	6973.35
183.461	7033.46
183.537	7043.55
183.613	7090.2
183.69	7058.35
183.766	7023.25
183.842	7047.9
183.918	7066.31
183.995	7107.14
184.071	7119.98
184.147	7103.54
184.223	7067.53
184.299	7108.24
184.375	7061.35
184.452	7080.15
184.528	7207.91
184.604	7246.39
184.68	7287.51
184.756	7307.75
184.832	7326.06
184.908	7343.11
184.985	7343.54
185.061	7285.12
185.137	7311.89
185.213	7273.26
185.289	7275.8
185.365	7245.54
185.441	7241.31
185.517	7288.58
185.593	7278.05
185.669	7269.88
185.745	7307.8
185.822	7362.32
185.898	7330.11
185.974	7369.74
186.05	7345.8
186.126	7267.64
186.202	7244.34
186.278	7229.29
186.354	7195.6
186.43	7215.03
186.506	7210.08
186.582	7209.02
186.658	7232.17
186.734	7160.98
186.81	7169.38
186.886	7184.9
186.962	7229.25
187.038	7210.36
187.114	7178.57
187.19	7208.09
187.266	7169.7
187.341	7166
187.417	7141.93
187.493	7143.7
187.569	7152.6
187.645	7130.69
187.721	7085.84
187.797	7112.17
187.873	7130.72
187.949	7111.22
188.025	7091.07
188.101	7099.24
188.176	7117.31
188.252	7104.91
188.328	7135.01
188.404	7130.31
188.48	7109.79
188.556	7087.54
188.632	7088.31
188.707	7097.11
188.783	7086.24
188.859	7070.64
188.935	7036.56
189.011	7062.51
189.086	7042
189.162	7008.99
189.238	7002.84
189.314	7005.43
189.39	6982.71
189.465	6957.24
189.541	7017.55
189.617	6964.85
189.693	6949.29
189.768	6959.33
189.844	7046.84
189.92	7019.33
189.996	7048.78
190.071	7086.26
190.147	7079.68
190.223	7116.84
190.298	7088.28
190.374	7040.18
190.45	7081.58
190.526	7107.29
190.601	7089.61
190.677	7097.68
190.753	7198.33
190.828	7212.64
190.904	7259.32
190.98	7314.79
191.055	7351.41
191.131	7318.29
191.207	7387.24
191.282	7423.61
191.358	7392.09
191.433	7336.15
191.509	7387.88
191.585	7377.3
191.66	7381.29
191.736	7417.05
191.811	7379.7
191.887	7434.23
191.963	7515.66
192.038	7535.84
192.114	7537.57
192.189	7547.76
192.265	7535.61
192.34	7458.65
192.416	7455.43
192.491	7442.25
192.567	7450.77
192.642	7462.88
192.718	7465.58
192.793	7422.75
192.869	7407.85
192.944	7421.64
193.02	7448.42
193.095	7457.46
193.171	7482.6
193.246	7485
193.322	7466.54
193.397	7472.07
193.473	7425.52
193.548	7364.65
193.624	7385.28
193.699	7385.28
193.775	7441.93
193.85	7446.35
193.925	7477.02
194.001	7476.01
194.076	7450.63
194.152	7410.1
194.227	7378.07
194.302	7340.41
194.378	7357.19
194.453	7343.73
194.529	7381.19
194.604	7334.22
194.679	7313.51
194.755	7243.84
194.83	7282.61
194.905	7278.29
194.981	7310.98
195.056	7291.37
195.131	7307.13
195.207	7301.27
195.282	7264.36
195.357	7190.37
195.433	7239
195.508	7200.01
195.583	7220.77
195.659	7264.67
195.734	7292.94
195.809	7291.3
195.884	7328.39
195.96	7331.51
196.035	7390.2
196.11	7376.83
196.185	7413.41
196.261	7424.08
196.336	7537.95
196.411	7488.17
196.486	7510.62
196.561	7478.74
196.637	7500.18
196.712	7563.47
196.787	7576.7
196.862	7629.23
196.937	7672.3
197.013	7691.63
197.088	7724.42
197.163	7801.63
197.238	7869.73
197.313	7867.28
197.388	7917.63
197.464	8022.27
197.539	8059.97
197.614	8035.64
197.689	8078.79
197.764	8139.32
197.839	8205.69
197.914	8177.88
197.989	8254.42
198.065	8294.06
198.14	8475.29
198.215	8580.13
198.29	8614.6
198.365	8656.66
198.44	8695.83
198.515	8793.82
198.59	8855.48
198.665	8952.03
198.74	8980.92
198.815	8989.93
198.89	9072.95
198.965	9170.46
199.04	9156.93
199.115	9209.82
199.19	9357.94
199.265	9363.09
199.34	9400.07
199.415	9523.18
199.49	9600.39
199.565	9635.74
199.64	9725.59
199.715	9712.82
199.79	9727.41
199.865	9754.77
199.94	9747.45
200.015	9854.23
200.09	9871.14
200.165	9891.32
200.24	9909.48
200.315	10044.64
200.39	10090.5
200.464	10109.96
200.539	10120.03
200.614	10173.2
200.689	10256.54
200.764	10280.01
200.839	10348.44
200.914	10367.03
200.989	10327.56
201.063	10377.28
201.138	10317.97
201.213	10312.57
201.288	10247.01
201.363	10261.94
201.438	10264.06
201.512	10322.67
201.587	10268.28
201.662	10285.14
201.737	10321.95
201.812	10348.93
201.886	10238.95
201.961	10269.55
202.036	10223.51
202.111	10213.11
202.186	10117.24
202.26	10055.14
202.335	9977.48
202.41	9952.63
202.485	9885.69
202.559	9815.52
202.634	9719.39
202.709	9752.8
202.784	9689.28
202.858	9693.8
202.933	9628.7
203.008	9599.9
203.082	9528.44
203.157	9525.16
203.232	9368.02
203.306	9294.51
203.381	9179.23
203.456	9099.54
203.53	9018.89
203.605	8948.36
203.68	8864.71
203.754	8835.08
203.829	8782.22
203.904	8712.53
203.978	8670.98
204.053	8690.77
204.127	8648.37
204.202	8647.94
204.277	8577.54
204.351	8557.18
204.426	8528.25
204.5	8500.67
204.575	8379.5
204.65	8417.87
204.724	8384.16
204.799	8416.91
204.873	8402.37
204.948	8397.51
205.022	8355.37
205.097	8323.45
205.171	8368.86
205.246	8396.87
205.32	8397.74
205.395	8397.6
205.469	8366.49
205.544	8386.32
205.618	8323.38
205.693	8362.93
205.767	8320.69
205.842	8398.02
205.916	8366.56
205.991	8330.47
206.065	8353.48
206.14	8408.13
206.214	8390.99
206.289	8368.22
206.363	8410.13
206.438	8421.73
206.512	8445.7
206.586	8512.09
206.661	8541.56
206.735	8470
206.81	8477.46
206.884	8529.9
206.958	8487.28
207.033	8547.69
207.107	8575.95
207.181	8682.53
207.256	8656.16
207.33	8722.56
207.405	8767.5
207.479	8838.68
207.553	8867.98
207.628	8805.54
207.702	8849.57
207.776	8819.54
207.851	8825.65
207.925	8879.34
207.999	8864.56
208.073	8858.11
208.148	8866.63
208.222	8824.61
208.296	8936.89
208.371	8987.99
208.445	9026.51
208.519	9128.59
208.593	9162.1
208.668	9143.12
208.742	9153.43
208.816	9166.43
208.89	9211.41
208.965	9207.94
209.039	9234.14
209.113	9288.4
209.187	9362.34
209.261	9342.22
209.336	9417.38
209.41	9491.1
209.484	9489.03
209.558	9563.63
209.632	9613.07
209.707	9652.85
209.781	9724.02
209.855	9777.39
209.929	9834.49
210.003	9856.55
210.077	9852.17
210.151	10021.4
210.226	10140.31
210.3	10237.85
210.374	10322.61
210.448	10341.01
210.522	10373.82
210.596	10415.79
210.67	10453.03
210.744	10617.71
210.818	10736.23
210.892	10811.3
210.966	10796.23
211.041	10850.33
211.115	10843.73
211.189	10931.71
211.263	10981.58
211.337	11012.42
211.411	11066.92
211.485	11050.44
211.559	11078.96
211.633	11085.08
211.707	10979.14
211.781	11004.25
211.855	10872.41
211.929	10838.88
212.003	10762.06
212.077	10798.11
212.151	10838.21
212.225	10870.4
212.299	10834.83
212.373	10791.17
212.447	10766.74
212.52	10862.2
212.594	10872.85
212.668	10910.72
212.742	10850.29
212.816	10832.17
212.89	10802.4
212.964	10780.33
213.038	10782.16
213.112	10826.16
213.186	10869.23
213.26	10788.41
213.333	10621.66
213.407	10640.74
213.481	10640.88
213.555	10679.55
213.629	10628.66
213.703	10558.74
213.777	10540.86
213.85	10464.19
213.924	10568.86
213.998	10560.58
214.072	10522.55
214.146	10464.25
214.219	10439.29
214.293	10416.36
214.367	10409.9
214.441	10440.45
214.515	10398.86
214.588	10308.39
214.662	10175.92
214.736	10099.18
214.81	10108.04
214.883	10127.1
214.957	10070.09
215.031	10010.54
215.105	9917.65
215.178	9848.05
215.252	9804.08
215.326	9697.11
215.4	9603.81
215.473	9418.2
215.547	9329.19
215.621	9259.86
215.694	9255.33
215.768	9150.03
215.842	9082.25
215.915	9004.08
215.989	8878.89
216.063	8817.82
216.136	8786.43
216.21	8761.55
216.284	8767.52
216.357	8747.21
216.431	8701.48
216.504	8694.16
216.578	8751.21
216.652	8758.72
216.725	8732.14
216.799	8739.17
216.873	8719.83
216.946	8722.81
217.02	8678.61
217.093	8643.14
217.167	8543.77
217.24	8455.1
217.314	8419.99
217.387	8367.72
217.461	8322.68
217.535	8347.41
217.608	8280.63
217.682	8255.8
217.755	8264.27
217.829	8197.23
217.902	8176.2
217.976	8157.44
218.049	8111.55
218.123	8032.66
218.196	8030.02
218.27	7994.99
218.343	7920.31
218.417	7916.27
218.49	7892.51
218.563	7937.96
218.637	7946.52
218.71	8019.85
218.784	8048.57
218.857	8085.22
218.931	8111.32
219.004	8127
219.077	8142.89
219.151	8161.69
219.224	8150.39
219.298	8143.31
219.371	8193.26
219.444	8154.5
219.518	8164.99
219.591	8187.83
219.665	8297.16
219.738	8312.75
219.811	8294.72
219.885	8339.7
219.958	8373.19
220.031	8377.14
220.105	8398.36
220.178	8401.3
220.251	8373.67
220.325	8395.42
220.398	8414.14
220.471	8437.52
220.544	8471.54
220.618	8444.83
220.691	8472.26
220.764	8493.71
220.838	8520.33
220.911	8505.6
220.984	8590.71
221.057	8624.01
221.131	8641.13
221.204	8541.37
221.277	8613.68
221.35	8737.03
221.424	8734
221.497	8747.72
221.57	8774.22
221.643	8809.18
221.716	8863.63
221.79	8865.31
221.863	8874.65
221.936	8884.37
222.009	8891.11
222.082	8917.83
222.155	8929.91
222.229	8996.55
222.302	9024.42
222.375	9033.37
222.448	9071.55
222.521	9072.27
222.594	9082.86
222.667	9059.43
222.74	9120.03
222.814	9110.16
222.887	9096.58
222.96	9148.09
223.033	9187.87
223.106	9219.64
223.179	9246.61
223.252	9259.13
223.325	9295.72
223.398	9311.27
223.471	9338.81
223.544	9364.08
223.617	9381.95
223.69	9409.48
223.763	9365.47
223.837	9395.47
223.91	9435.63
223.983	9389.85
224.056	9355.91
224.129	9369.01
224.202	9430.95
224.275	9411.3
224.348	9382.56
224.42	9337.2
224.493	9277.55
224.566	9252.84
224.639	9272.82
224.712	9243.49
224.785	9225.91
224.858	9213.92
224.931	9193.89
225.004	9148.06
225.077	9153.74
225.15	9055.6
225.223	9049.05
225.296	9144.14
225.369	9085.41
225.442	9044.38
225.514	9059.54
225.587	9083.12
225.66	9092.37
225.733	9089.67
225.806	9099.83
225.879	9093.72
225.952	9069.94
226.025	9121.6
226.097	9175.21
226.17	9166.45
226.243	9100.84
226.316	9096.99
226.389	9100.99
226.461	9119.24
226.534	9143.69
226.607	9131.41
226.68	9218.86
226.753	9213.76
226.825	9121.46
226.898	9177.88
226.971	9181.25
227.044	9201.76
227.117	9208.07
227.189	9221.22
227.262	9261.09
227.335	9287.15
227.407	9279.26
227.48	9315.5
227.553	9326.33
227.626	9299.31
227.698	9302.44
227.771	9339.54
227.844	9313.2
227.916	9334.44
227.989	9302.85
228.062	9304.1
228.134	9393.3
228.207	9389.11
228.28	9390.99
228.352	9402.4
228.425	9403.31
228.498	9451.57
228.57	9434.53
228.643	9497.72
228.716	9501.86
228.788	9483.36
228.861	9470.84
228.934	9538.64
229.006	9551.01
229.079	9554
229.151	9551.01
229.224	9516.93
229.296	9551.07
229.369	9659.16
229.442	9707.09
229.514	9685.1
229.587	9728.87
229.659	9651.76
229.732	9670.59
229.804	9708.58
229.877	9797.23
229.949	9833.02
230.022	9883.61
230.094	9889.77
230.167	9873.3
230.239	9829.48
230.312	9818.79
230.384	9896.45
230.457	9891.49
230.529	9895.34
230.602	9894.23
230.674	9901.7
230.747	9951.77
230.819	9985.25
230.892	9865.36
230.964	9862.95
231.037	9901.27
231.109	9889.42
231.181	9928.76
231.254	9890.81
231.326	9869.14
231.399	9834.98
231.471	9810.17
231.544	9729.57
231.616	9769.82
231.688	9781.63
231.761	9769.16
231.833	9757.03
231.905	9664.82
231.978	9660.78
232.05	9645.95
232.122	9655.82
232.195	9628.17
232.267	9667.29
232.339	9639.16
232.412	9710.61
232.484	9684.02
232.556	9652.59
232.629	9728.9
232.701	9753.57
232.773	9762.72
232.846	9756.22
232.918	9767.01
232.99	9781.08
233.062	9823.27
233.135	9841.14
233.207	9796.44
233.279	9841.94
233.351	9875.51
233.424	9878.78
233.496	9857.49
233.568	9950.85
233.64	9908.81
233.713	9930.48
233.785	9918.15
233.857	9932.21
233.929	9877.36
234.001	9947.37
234.074	10009.34
234.146	9936.64
234.218	9930.85
234.29	9936.73
234.362	9925.17
234.434	9880.66
234.507	9845.35
234.579	9794.39
234.651	9768.48
234.723	9806.1
234.795	9830.04
234.867	9820.79
234.939	9888.56
235.012	9907.3
235.084	9906.91
235.156	9950.06
235.228	9929.88
235.3	9914.61
235.372	9928.29
235.444	9987.24
235.516	9909.04
235.588	9922.14
235.66	9933.51
235.732	9900.9
235.804	10105.24
235.876	10155.8
235.948	10217.23
236.02	10233.85
236.092	10247.53
236.164	10264.82
236.236	10262.41
236.308	10261.54
236.38	10292.9
236.452	10268.96
236.524	10290.68
236.596	10355.56
236.668	10385.67
236.74	10415.34
236.812	10444.53
236.884	10478.21
236.956	10491.99
237.028	10479.52
237.1	10459.67
237.172	10539.61
237.244	10627.25
237.316	10495.71
237.388	10479.43
237.46	10455.24
237.532	10522.06
237.604	10518.26
237.675	10593.91
237.747	10649.71
237.819	10637.77
237.891	10641.52
237.963	10624.04
238.035	10624.13
238.107	10506.26
238.178	10573.06
238.25	10571.32
238.322	10668
238.394	10616.01
238.466	10620.69
238.538	10670.31
238.609	10718.15
238.681	10656.37
238.753	10632.41
238.825	10665.57
238.897	10698.09
238.968	10786.05
239.04	10768.07
239.112	10885.25
239.184	10845.78
239.255	10842.55
239.327	10880.32
239.399	10911.84
239.471	10968.06
239.542	11004.35
239.614	11080.05
239.686	10988.19
239.758	11053.29
239.829	11012.71
239.901	11087.73
239.973	11103.06
240.044	11138.76
240.116	11151.73
240.188	11168.16
240.259	11181.8
240.331	11161.55
240.403	11196.54
240.474	11142.99
240.546	11130.55
240.618	11063.37
240.689	11059.86
240.761	11076.68
240.833	11150.7
240.904	11147.48
240.976	11148.82
241.048	11161.55
241.119	11201.7
241.191	11259.33
241.262	11330.62
241.334	11334.19
241.405	11338.81
241.477	11339.15
241.549	11349.75
241.62	11375.44
241.692	11418.62
241.763	11483.02
241.835	11510.11
241.906	11530.54
241.978	11503.22
242.049	11572.61
242.121	11639.46
242.192	11713.2
242.264	11681.24
242.335	11622.49
242.407	11667.41
242.478	11672.13
242.55	11699.03
242.621	11679.65
242.693	11681.96
242.764	11657.24
242.836	11662.92
242.907	11695.99
242.979	11737.29
243.05	11756.09
243.122	11785.54
243.193	11790.89
243.264	11713.39
243.336	11716.33
243.407	11756.14
243.479	11841.6
243.55	11862.95
243.622	11879.34
243.693	11873.26
243.764	11944.98
243.836	11925.85
243.907	11915.83
243.978	11922.19
244.05	11944.36
244.121	11898.05
244.192	11942.15
244.264	11899.3
244.335	11916.22
244.407	11865.8
244.478	11880.07
244.549	11876.89
244.62	11825.94
244.692	11825.75
244.763	11876.31
244.834	11868.06
244.906	11843.38
244.977	11865.8
245.048	11918.78
245.119	11895.3
245.191	11877.23
245.262	11810.28
245.333	11892.36
245.405	11911.97
245.476	11944.12
245.547	11966.92
245.618	12019.17
245.689	12027.46
245.761	12064.72
245.832	12066.5
245.903	12118.89
245.974	12143.58
246.045	12156.3
246.117	12250.39
246.188	12230.24
246.259	12216.27
246.33	12233.47
246.401	12242.78
246.473	12201.75
246.544	12181.65
246.615	12240.17
246.686	12245.42
246.757	12326.79
246.828	12297.48
246.899	12376.34
246.97	12344.2
247.042	12331.47
247.113	12379.1
247.184	12479.12
247.255	12477.2
247.326	12509.01
247.397	12511.03
247.468	12528.15
247.539	12537.21
247.61	12485.15
247.681	12542.41
247.752	12600.83
247.823	12581.07
247.894	12608.11
247.965	12577.36
248.037	12561.89
248.108	12509.2
248.179	12512.82
248.25	12499.51
248.321	12537.93
248.392	12482.88
248.463	12566.8
248.534	12570.32
248.605	12594.95
248.675	12560
248.746	12580.2
248.817	12595.91
248.888	12622.18
248.959	12559.62
249.03	12598.61
249.101	12612.16
249.172	12589.75
249.243	12509.97
249.314	12579.34
249.385	12584.11
249.456	12620.74
249.527	12620.36
249.598	12651.35
249.669	12659.79
249.739	12681.14
249.81	12694.78
249.881	12657.71
249.952	12652.75
250.023	12644.75
250.094	12587.48
250.165	12556
250.235	12554.51
250.306	12558.6
250.377	12519.89
250.448	12557.93
250.519	12488.95
250.59	12552.63
250.66	12555.81
250.731	12627.87
250.802	12623.58
250.873	12640.26
250.944	12668.55
251.014	12663.3
251.085	12753.44
251.156	12780.34
251.227	12835.63
251.297	12892.37
251.368	12945.78
251.439	12994.57
251.51	13058.3
251.58	13049.86
251.651	13041.09
251.722	13099.66
251.792	13051.55
251.863	13060.03
251.934	13120.68
252.005	13236.56
252.075	13239.6
252.146	13288.67
252.217	13350.91
252.287	13393.52
252.358	13399.64
252.429	13474.17
252.499	13463.27
252.57	13472.63
252.641	13524.11
252.711	13525.12
252.782	13474.22
252.852	13548.12
252.923	13544.55
252.994	13555.16
253.064	13602.78
253.135	13586.58
253.205	13558.24
253.276	13634.31
253.347	13692.4
253.417	13670.03
253.488	13649.06
253.558	13639.32
253.629	13642.5
253.699	13651.66
253.77	13680.1
253.841	13672.97
253.911	13676.97
253.982	13700.4
254.052	13730.57
254.123	13735.54
254.193	13738
254.264	13883.14
254.334	13855.76
254.405	13820.42
254.475	13782.15
254.546	13785.76
254.616	13856.58
254.687	13890.56
254.757	13918.47
254.827	13928.55
254.898	13954.77
254.968	13962.87
255.039	13945.33
255.109	13978.25
255.18	13939.64
255.25	13862.89
255.321	13897.22
255.391	13859.23
255.461	13936.22
255.532	13848.58
255.602	13843.66
255.673	13783.5
255.743	13745.66
255.813	13664.15
255.884	13719.29
255.954	13764.32
256.024	13828.67
256.095	13829.45
256.165	13794.35
256.235	13809.68
256.306	13790.25
256.376	13833.44
256.446	13879.19
256.517	13913.08
256.587	13954.34
256.657	13984.57
256.728	14012.72
256.798	14020
256.868	14016.05
256.938	13989.39
257.009	14034.08
257.079	14065.32
257.149	14172.96
257.219	14102.44
257.29	14146.01
257.36	14082.86
257.43	14120.17
257.5	14058.76
257.571	14050.03
257.641	14084.5
257.711	14049.65
257.781	14089.95
257.852	14102.82
257.922	14029.11
257.992	14029.31
258.062	14032.34
258.132	14070.86
258.202	14074.38
258.273	14084.84
258.343	14164.52
258.413	14162.69
258.483	14179.22
258.553	14144.03
258.623	14109.23
258.693	14145.72
258.764	14218.61
258.834	14297.72
258.904	14306.63
258.974	14298.63
259.044	14303.02
259.114	14332.95
259.184	14361.49
259.254	14368.29
259.324	14321.48
259.394	14376.97
259.464	14471.93
259.535	14473.13
259.605	14466.77
259.675	14460.89
259.745	14501.38
259.815	14471.2
259.885	14465.37
259.955	14577.77
260.025	14572.52
260.095	14589.68
260.165	14620.05
260.235	14684.35
260.305	14664.1
260.375	14634.89
260.445	14723.97
260.515	14792.52
260.585	14849.64
260.655	14859.62
260.725	14900.3
260.795	14935.78
260.865	15006.54
260.934	14963.59
261.004	14997.48
261.074	15001.19
261.144	15064.78
261.214	15106.95
261.284	15113.07
261.354	15154.92
261.424	15111.64
261.494	15182.31
261.564	15195.27
261.634	15227.13
261.703	15156.9
261.773	15181.44
261.843	15221.26
261.913	15217.16
261.983	15158.16
262.053	15175.17
262.123	15179.51
262.192	15141.28
262.262	15191.85
262.332	15146.49
262.402	15181.34
262.472	15187.99
262.541	15130.53
262.611	15174.97
262.681	15150.83
262.751	15191.07
262.821	15189.68
262.89	15158.35
