Data from 20250701_urea_2M_exp3_MAYP1162681_07-59-52-186.txt Node
Date: Wed Jul 02 07:59:52 BST 2025
User: adleo
Spectrometer: MAYP116268
Trigger mode: 0
Integration Time (sec): 4.000000E0
Scans to average: 1
Electric dark correction enabled: true
Nonlinearity correction enabled: true
Boxcar width: 10
XAxis mode: Wavelengths
Number of Pixels in Spectrum: 2068
>>>>>Begin Spectral Data<<<<<
179.565	3784.62
179.642	3977.68
179.718	4134.76
179.795	4269.76
179.871	4392.6
179.948	4456.66
180.024	4530.18
180.101	4611.92
180.177	4663.49
180.254	4746.67
180.33	4822.12
180.407	5099.06
180.483	5393.44
180.56	5693.15
180.636	5964.32
180.712	5929.14
180.789	5961.43
180.865	6003.62
180.942	6027.46
181.018	6065.99
181.095	6114.53
181.171	6133.63
181.248	6138.38
181.324	6187.59
181.4	6214.66
181.477	6247.41
181.553	6297.44
181.63	6366.38
181.706	6424.63
181.782	6453.65
181.859	6453.21
181.935	6474.01
182.011	6459.26
182.088	6514.44
182.164	6582.38
182.24	6635.65
182.317	6666.8
182.393	6659.89
182.469	6709.59
182.546	6760.01
182.622	6775.62
182.698	6761.98
182.775	6805.11
182.851	6852.8
182.927	6827.29
183.003	6809.72
183.08	6788.93
183.156	6820.87
183.232	6811.16
183.308	6765.63
183.385	6797.61
183.461	6852.04
183.537	6861.12
183.613	6907.33
183.69	6877.26
183.766	6836.02
183.842	6857.54
183.918	6876.47
183.995	6921.67
184.071	6927.62
184.147	6911.91
184.223	6877.21
184.299	6919.98
184.375	6882.13
184.452	6908.33
184.528	7040.29
184.604	7082.98
184.68	7123.47
184.756	7141.98
184.832	7159.47
184.908	7180.93
184.985	7178.19
185.061	7125.25
185.137	7152.98
185.213	7110.95
185.289	7111.14
185.365	7090.92
185.441	7085.78
185.517	7130.44
185.593	7117.28
185.669	7114.63
185.745	7146.93
185.822	7204.89
185.898	7174.32
185.974	7206.16
186.05	7175.78
186.126	7098.84
186.202	7070.31
186.278	7060.41
186.354	7029.56
186.43	7053.21
186.506	7047.59
186.582	7043.75
186.658	7063.96
186.734	6992.83
186.81	7001.23
186.886	7019.63
186.962	7062.14
187.038	7050.13
187.114	7022.67
187.19	7051.13
187.266	7015.68
187.341	7016.69
187.417	6987.04
187.493	6985.12
187.569	6995.7
187.645	6971.73
187.721	6931.16
187.797	6961.91
187.873	6976.66
187.949	6962.01
188.025	6938.21
188.101	6943.73
188.176	6960.74
188.252	6949.93
188.328	6974.22
188.404	6974.27
188.48	6954.15
188.556	6928.25
188.632	6929.45
188.707	6935.03
188.783	6925.12
188.859	6910.96
188.935	6870.5
189.011	6892.17
189.086	6867.96
189.162	6837.41
189.238	6831.98
189.314	6823
189.39	6801.86
189.465	6777.74
189.541	6829.35
189.617	6780.55
189.693	6763.26
189.768	6774.94
189.844	6856.27
189.92	6833.66
189.996	6862.77
190.071	6901.69
190.147	6898.28
190.223	6925.43
190.298	6892.08
190.374	6847.21
190.45	6886.54
190.526	6922.19
190.601	6913.16
190.677	6921.13
190.753	7018.25
190.828	7033.57
190.904	7085.42
190.98	7136.51
191.055	7172.26
191.131	7147.65
191.207	7216.79
191.282	7251.32
191.358	7219.32
191.433	7174.36
191.509	7216.47
191.585	7209.21
191.66	7208.2
191.736	7239.39
191.811	7206.13
191.887	7268.2
191.963	7346.72
192.038	7366.43
192.114	7361.19
192.189	7371.61
192.265	7356.01
192.34	7280.45
192.416	7276.03
192.491	7264.06
192.567	7269.02
192.642	7278.92
192.718	7279.02
192.793	7234.27
192.869	7224.57
192.944	7231.39
193.02	7252.3
193.095	7269.22
193.171	7287.91
193.246	7290.17
193.322	7278.92
193.397	7284.06
193.473	7229.69
193.548	7168.45
193.624	7184.41
193.699	7183.69
193.775	7238.07
193.85	7249.35
193.925	7276.32
194.001	7279.11
194.076	7256.57
194.152	7224.31
194.227	7194.84
194.302	7155.6
194.378	7169.24
194.453	7155.56
194.529	7198.23
194.604	7143.55
194.679	7121.3
194.755	7058.37
194.83	7100.93
194.905	7088.06
194.981	7120.69
195.056	7100.47
195.131	7123.39
195.207	7115.07
195.282	7084.22
195.357	7018.84
195.433	7069.87
195.508	7030.41
195.583	7054
195.659	7099.48
195.734	7118.7
195.809	7114.76
195.884	7146.51
195.96	7151.74
196.035	7207.1
196.11	7190.47
196.185	7234.72
196.261	7248.03
196.336	7355.3
196.411	7304.76
196.486	7325.14
196.561	7296.68
196.637	7322.05
196.712	7376.39
196.787	7392.31
196.862	7442.52
196.937	7474.15
197.013	7497.23
197.088	7529.43
197.163	7598.16
197.238	7652.49
197.313	7656.72
197.388	7703.93
197.464	7811.3
197.539	7848.13
197.614	7825.15
197.689	7872.95
197.764	7930.15
197.839	7993.96
197.914	7968.03
197.989	8044.17
198.065	8093.08
198.14	8273.28
198.215	8366.45
198.29	8405.58
198.365	8447.97
198.44	8488.53
198.515	8584.39
198.59	8636.75
198.665	8732.99
198.74	8761.01
198.815	8767.9
198.89	8841.23
198.965	8945.08
199.04	8927.02
199.115	8981.98
199.19	9123.28
199.265	9129.06
199.34	9162.71
199.415	9278.58
199.49	9354.29
199.565	9387.8
199.64	9472.2
199.715	9457.89
199.79	9482.93
199.865	9506.19
199.94	9495.79
200.015	9600.06
200.09	9621.97
200.165	9641.38
200.24	9655.78
200.315	9789.92
200.39	9844.25
200.464	9864.91
200.539	9870.5
200.614	9932.24
200.689	10012.97
200.764	10037.11
200.839	10097.77
200.914	10115.01
200.989	10080.41
201.063	10127.48
201.138	10070.82
201.213	10071.35
201.288	10002.86
201.363	10016.83
201.438	10013.75
201.512	10072.34
201.587	10013.33
201.662	10026.38
201.737	10068.29
201.812	10103.89
201.886	9994.99
201.961	10022.45
202.036	9986.44
202.111	9968.28
202.186	9861.5
202.26	9796.71
202.335	9720.89
202.41	9701.87
202.485	9643.32
202.559	9579.37
202.634	9485.56
202.709	9516.37
202.784	9447.6
202.858	9451.69
202.933	9388.43
203.008	9363.44
203.082	9298.63
203.157	9295.84
203.232	9145.55
203.306	9068.92
203.381	8956.48
203.456	8878.02
203.53	8804.79
203.605	8736.09
203.68	8662.09
203.754	8643.72
203.829	8590.34
203.904	8521.87
203.978	8479.41
204.053	8498.81
204.127	8450.55
204.202	8450.21
204.277	8386.08
204.351	8360.67
204.426	8336.27
204.5	8308.07
204.575	8195.1
204.65	8225.96
204.724	8195.72
204.799	8221.63
204.873	8213.11
204.948	8210.7
205.022	8170.89
205.097	8138.63
205.171	8186.06
205.246	8210.84
205.32	8209.59
205.395	8213.25
205.469	8183.78
205.544	8201.25
205.618	8139.19
205.693	8185.09
205.767	8141.12
205.842	8213.44
205.916	8194.83
205.991	8160.96
206.065	8181.88
206.14	8232.3
206.214	8221.76
206.289	8198.32
206.363	8245.32
206.438	8252.73
206.512	8270.63
206.586	8332.83
206.661	8356.7
206.735	8276.5
206.81	8277.8
206.884	8328.36
206.958	8284.69
207.033	8341.81
207.107	8368.53
207.181	8478.13
207.256	8448.77
207.33	8514.83
207.405	8554.13
207.479	8622.17
207.553	8648.24
207.628	8593.37
207.702	8626.42
207.776	8596
207.851	8604.95
207.925	8655.94
207.999	8641.55
208.073	8637.75
208.148	8649.59
208.222	8610.17
208.296	8722.9
208.371	8781.8
208.445	8816.9
208.519	8916.51
208.593	8958.09
208.668	8940.57
208.742	8947.84
208.816	8966.22
208.89	9010.91
208.965	9011.97
209.039	9036.38
209.113	9089.14
209.187	9160.33
209.261	9151.09
209.336	9220.41
209.41	9288.83
209.484	9281.41
209.558	9360.34
209.632	9406.26
209.707	9446.13
209.781	9523.26
209.855	9577.3
209.929	9637.25
210.003	9652.75
210.077	9648.08
210.151	9808.24
210.226	9926.32
210.3	10019.71
210.374	10093.19
210.448	10106.87
210.522	10143.01
210.596	10180.1
210.67	10212.85
210.744	10371.11
210.818	10487.55
210.892	10555.34
210.966	10537.8
211.041	10601.06
211.115	10585.36
211.189	10666.1
211.263	10715.96
211.337	10733.79
211.411	10777.73
211.485	10754.36
211.559	10795.45
211.633	10803.73
211.707	10691.15
211.781	10721.04
211.855	10593.16
211.929	10567.05
212.003	10503.53
212.077	10528.69
212.151	10570.47
212.225	10601.4
212.299	10563.61
212.373	10521.36
212.447	10503.87
212.52	10600.72
212.594	10604.28
212.668	10635.55
212.742	10586.55
212.816	10566.07
212.89	10545.98
212.964	10538.12
213.038	10542.99
213.112	10589.01
213.186	10635.4
213.26	10563.94
213.333	10399.71
213.407	10411.9
213.481	10411.61
213.555	10441.27
213.629	10394
213.703	10325.43
213.777	10316.08
213.85	10245.4
213.924	10356.86
213.998	10355.37
214.072	10320.81
214.146	10265.84
214.219	10248.16
214.293	10214.01
214.367	10204.81
214.441	10225.43
214.515	10172.86
214.588	10079.31
214.662	9939.39
214.736	9854.14
214.81	9870.75
214.883	9887.69
214.957	9837.33
215.031	9776.68
215.105	9687.94
215.178	9621.96
215.252	9578.29
215.326	9472.05
215.4	9378.53
215.473	9184.03
215.547	9091.94
215.621	9013.18
215.694	9004.51
215.768	8905.48
215.842	8846.23
215.915	8775.98
215.989	8660.76
216.063	8603.61
216.136	8581.42
216.21	8559.48
216.284	8567.13
216.357	8535.61
216.431	8487.63
216.504	8479.69
216.578	8539.23
216.652	8548.56
216.725	8525.36
216.799	8533.5
216.873	8512.57
216.946	8521.76
217.02	8480.26
217.093	8445.38
217.167	8352.09
217.24	8268.25
217.314	8230.74
217.387	8179.68
217.461	8130.13
217.535	8147.98
217.608	8085.2
217.682	8054.31
217.755	8060.9
217.829	7998.64
217.902	7983.01
217.976	7966.7
218.049	7917.89
218.123	7835.59
218.196	7830.59
218.27	7793.7
218.343	7716.09
218.417	7717.96
218.49	7692.72
218.563	7742.25
218.637	7753.6
218.71	7825.17
218.784	7848.22
218.857	7883.89
218.931	7905.52
219.004	7919.42
219.077	7944.59
219.151	7961.9
219.224	7954.83
219.298	7949.59
219.371	7994.81
219.444	7957.26
219.518	7964.71
219.591	7982.45
219.665	8089.12
219.738	8102.11
219.811	8083.69
219.885	8129.2
219.958	8157.54
220.031	8160.71
220.105	8181.02
220.178	8184.29
220.251	8159.31
220.325	8188.14
220.398	8205.32
220.471	8230.28
220.544	8266.41
220.618	8243.6
220.691	8270.82
220.764	8284.97
220.838	8320.82
220.911	8307.1
220.984	8391.57
221.057	8433.24
221.131	8461.38
221.204	8359.95
221.277	8438.16
221.35	8563.04
221.424	8561.26
221.497	8572.71
221.57	8594.45
221.643	8624.15
221.716	8675.18
221.79	8679.17
221.863	8691.06
221.936	8697.56
222.009	8714.44
222.082	8738.42
222.155	8742.7
222.229	8804.37
222.302	8834.4
222.375	8839.16
222.448	8886.09
222.521	8887.39
222.594	8879.89
222.667	8856.55
222.74	8913.58
222.814	8901.54
222.887	8882.61
222.96	8934.41
223.033	8977.22
223.106	9006.04
223.179	9034.5
223.252	9046.78
223.325	9076.09
223.398	9088.37
223.471	9119.8
223.544	9141.12
223.617	9159.33
223.69	9183.44
223.763	9149.54
223.837	9180.26
223.91	9201.11
223.983	9146.43
224.056	9114.95
224.129	9145.04
224.202	9201.87
224.275	9192.96
224.348	9165.47
224.42	9131.38
224.493	9072.75
224.566	9046.7
224.639	9063.02
224.712	9034.27
224.785	9023.96
224.858	9012.5
224.931	8987.66
225.004	8947.9
225.077	8940.82
225.15	8849.1
225.223	8847.85
225.296	8931.94
225.369	8869.9
225.442	8842.22
225.514	8864.11
225.587	8883.07
225.66	8880.71
225.733	8876.14
225.806	8889.48
225.879	8880.04
225.952	8857.19
226.025	8908.93
226.097	8956.32
226.17	8957.96
226.243	8892.8
226.316	8878.3
226.389	8888.08
226.461	8907.05
226.534	8927.21
226.607	8917.39
226.68	9005.46
226.753	8999.01
226.825	8909.47
226.898	8965.4
226.971	8971.13
227.044	8992.64
227.117	8999.19
227.189	9020.23
227.262	9053.36
227.335	9073.54
227.407	9067.57
227.48	9092.93
227.553	9103.33
227.626	9084.26
227.698	9084.31
227.771	9123.42
227.844	9105.32
227.916	9124.53
227.989	9093.77
228.062	9089.78
228.134	9178.52
228.207	9174.86
228.28	9167.31
228.352	9182.38
228.425	9191.62
228.498	9233.37
228.57	9209.2
228.643	9268.73
228.716	9271.18
228.788	9263.43
228.861	9252.69
228.934	9314.17
229.006	9323.12
229.079	9324.71
229.151	9316.77
229.224	9284.57
229.296	9314.32
229.369	9419.03
229.442	9470.72
229.514	9451.03
229.587	9496.82
229.659	9422.22
229.732	9431.71
229.804	9472.44
229.877	9558.38
229.949	9594.55
230.022	9647.4
230.094	9650.63
230.167	9635.41
230.239	9589.33
230.312	9577.72
230.384	9648.68
230.457	9653.31
230.529	9670.3
230.602	9675.12
230.674	9682.63
230.747	9729.28
230.819	9754.27
230.892	9634.01
230.964	9627.94
231.037	9656.1
231.109	9643.82
231.181	9686.33
231.254	9650.51
231.326	9639.63
231.399	9609.61
231.471	9576.85
231.544	9494.77
231.616	9537.62
231.688	9551.25
231.761	9542.59
231.833	9525.21
231.905	9435.23
231.978	9428.88
232.05	9408.22
232.122	9408.94
232.195	9385.92
232.267	9423.35
232.339	9403.94
232.412	9470.95
232.484	9453.13
232.556	9428.1
232.629	9500.75
232.701	9515.06
232.773	9535.66
232.846	9521.75
232.918	9528.54
232.99	9547.9
233.062	9599.05
233.135	9614.08
233.207	9572.8
233.279	9621.18
233.351	9661.29
233.424	9668.71
233.496	9642.18
233.568	9727.09
233.64	9684.86
233.713	9694.4
233.785	9682.64
233.857	9700.65
233.929	9648.22
234.001	9718.71
234.074	9784.33
234.146	9714.19
234.218	9710.96
234.29	9706.77
234.362	9694.01
234.434	9647.72
234.507	9607.41
234.579	9550.05
234.651	9530.6
234.723	9569.13
234.795	9576.59
234.867	9569.61
234.939	9623.6
235.012	9644.83
235.084	9644.98
235.156	9687.35
235.228	9675.41
235.3	9664.96
235.372	9667.8
235.444	9730.35
235.516	9641.07
235.588	9655.96
235.66	9663.71
235.732	9639
235.804	9841.21
235.876	9892.78
235.948	9956.32
236.02	9975.63
236.092	9988.77
236.164	10000.04
236.236	9988.67
236.308	9995.32
236.38	10024.51
236.452	10005.72
236.524	10028.12
236.596	10094.58
236.668	10131.96
236.74	10157.1
236.812	10183.84
236.884	10223.25
236.956	10230.47
237.028	10218.67
237.1	10197.38
237.172	10280.5
237.244	10360.08
237.316	10241.22
237.388	10217.76
237.46	10198.1
237.532	10256.3
237.604	10244.6
237.675	10325.06
237.747	10379.41
237.819	10369.97
237.891	10373.05
237.963	10366.02
238.035	10358.41
238.107	10245.99
238.178	10309.22
238.25	10317.4
238.322	10413.02
238.394	10363.54
238.466	10368.89
238.538	10423.36
238.609	10463.44
238.681	10399.16
238.753	10377.72
238.825	10394.2
238.897	10425.8
238.968	10508.45
239.04	10498.91
239.112	10623.25
239.184	10575.79
239.255	10572.99
239.327	10601.41
239.399	10620.06
239.471	10671.8
239.542	10709.67
239.614	10782.85
239.686	10693.66
239.758	10748.2
239.829	10712.92
239.901	10784.56
239.973	10801.42
240.044	10832.36
240.116	10851.01
240.188	10865.12
240.259	10882.13
240.331	10870.81
240.403	10921.54
240.474	10868.33
240.546	10852.63
240.618	10784.25
240.689	10783.81
240.761	10798.32
240.833	10874.46
240.904	10879.81
240.976	10883.32
241.048	10900.24
241.119	10938.8
241.191	10988.76
241.262	11063.33
241.334	11060.96
241.405	11064.24
241.477	11069.88
241.549	11076.87
241.62	11099.66
241.692	11154.11
241.763	11216
241.835	11238.31
241.906	11246.12
241.978	11221.4
242.049	11295.42
242.121	11362.4
242.192	11438.26
242.264	11406.12
242.335	11355.61
242.407	11401.3
242.478	11397.49
242.55	11415.18
242.621	11396.04
242.693	11391.17
242.764	11370.88
242.836	11373.68
242.907	11409.05
242.979	11439.9
243.05	11465.78
243.122	11493.88
243.193	11490.94
243.264	11413.82
243.336	11418.98
243.407	11456.53
243.479	11533.64
243.55	11551.62
243.622	11569.31
243.693	11569.31
243.764	11641.79
243.836	11622.61
243.907	11606.85
243.978	11617.98
244.05	11653.31
244.121	11605.03
244.192	11647
244.264	11597.84
244.335	11618.13
244.407	11566.32
244.478	11582.52
244.549	11579.62
244.62	11535.28
244.692	11538.08
244.763	11588.3
244.834	11578.95
244.906	11554.6
244.977	11582.76
245.048	11633.32
245.119	11610.38
245.191	11583.97
245.262	11518.42
245.333	11597.07
245.405	11621.89
245.476	11657.65
245.547	11672.5
245.618	11730.62
245.689	11745.66
245.761	11784.6
245.832	11783.54
245.903	11832.66
245.974	11862.11
246.045	11868.71
246.117	11951.23
246.188	11934.51
246.259	11917.54
246.33	11935.32
246.401	11955.42
246.473	11916.14
246.544	11899.56
246.615	11955.23
246.686	11962.84
246.757	12048.3
246.828	12021.84
246.899	12089.9
246.97	12055.58
247.042	12038.57
247.113	12079.73
247.184	12167.04
247.255	12160.19
247.326	12188.34
247.397	12198.56
247.468	12203.96
247.539	12222.47
247.61	12178.75
247.681	12224.25
247.752	12280.4
247.823	12254.42
247.894	12268.11
247.965	12238.52
248.037	12227.29
248.108	12173.2
248.179	12183.08
248.25	12167.22
248.321	12200.58
248.392	12153.39
248.463	12241.21
248.534	12240.63
248.605	12261.31
248.675	12236.63
248.746	12267.38
248.817	12281.99
248.888	12297.65
248.959	12242.9
249.03	12265.31
249.101	12275.68
249.172	12260.4
249.243	12185.06
249.314	12253.27
249.385	12256.69
249.456	12296.16
249.527	12286.57
249.598	12314.67
249.669	12312.16
249.739	12328.99
249.81	12341.28
249.881	12303.59
249.952	12288.98
250.023	12292.88
250.094	12241.35
250.165	12216.53
250.235	12205.39
250.306	12213.35
250.377	12175.94
250.448	12210.02
250.519	12138.54
250.59	12195.03
250.66	12195.18
250.731	12270.66
250.802	12269.07
250.873	12293.31
250.944	12306.95
251.014	12307.29
251.085	12398.06
251.156	12429.35
251.227	12481.6
251.297	12536.7
251.368	12593.05
251.439	12634.6
251.51	12687.82
251.58	12676.59
251.651	12671.53
251.722	12727.35
251.792	12679.05
251.863	12684.06
251.934	12749.57
252.005	12867.67
252.075	12878.28
252.146	12926.62
252.217	12976.9
252.287	13015.08
252.358	13017.69
252.429	13098.14
252.499	13085.42
252.57	13099.11
252.641	13144.56
252.711	13149.29
252.782	13103.4
252.852	13173.63
252.923	13171.22
252.994	13179.56
253.064	13227.48
253.135	13197.73
253.205	13174.74
253.276	13253.12
253.347	13325.09
253.417	13295.25
253.488	13274.33
253.558	13256.78
253.629	13260.25
253.699	13271.29
253.77	13307.16
253.841	13299.4
253.911	13307.69
253.982	13333.19
254.052	13355.89
254.123	13362.26
254.193	13364.86
254.264	13502.53
254.334	13469.8
254.405	13443.67
254.475	13415.33
254.546	13423.71
254.616	13493.03
254.687	13530.92
254.757	13548.86
254.827	13542.35
254.898	13570.07
254.968	13586.84
255.039	13575.32
255.109	13612.1
255.18	13576.19
255.25	13498.48
255.321	13530.64
255.391	13482.38
255.461	13565.73
255.532	13480.69
255.602	13476.5
255.673	13418.22
255.743	13380.72
255.813	13311.01
255.884	13356.62
255.954	13396.1
256.024	13459.92
256.095	13467.15
256.165	13425.17
256.235	13448.69
256.306	13438.08
256.376	13487.01
256.446	13521.48
256.517	13555.85
256.587	13590.56
256.657	13617.7
256.728	13644.41
256.798	13657.28
256.868	13662.92
256.938	13629.08
257.009	13683.12
257.079	13711.41
257.149	13814.67
257.219	13749.11
257.29	13785.51
257.36	13730.16
257.43	13765.98
257.5	13699.46
257.571	13689.91
257.641	13725.78
257.711	13691.7
257.781	13724.77
257.852	13741.4
257.922	13679.45
257.992	13684.66
258.062	13687.89
258.132	13727.51
258.202	13732.24
258.273	13746.41
258.343	13824.45
258.413	13813.03
258.483	13810.23
258.553	13781.89
258.623	13756.73
258.693	13796.4
258.764	13867.74
258.834	13944.49
258.904	13960.49
258.974	13956.35
259.044	13967.58
259.114	13997.71
259.184	14024.7
259.254	14032.08
259.324	13975.53
259.394	14030.87
259.464	14106.46
259.535	14114.75
259.605	14110.03
259.675	14100.53
259.745	14134.85
259.815	14102.7
259.885	14101.69
259.955	14220.12
260.025	14213.9
260.095	14222.43
260.165	14242.15
260.235	14304.57
260.305	14285.1
260.375	14246.34
260.445	14337.11
260.515	14404.16
260.585	14451.5
260.655	14465.19
260.725	14507.23
260.795	14548.78
260.865	14609.85
260.934	14584.89
261.004	14615.49
261.074	14616.84
261.144	14680.77
261.214	14715.62
261.284	14724.58
261.354	14766.47
261.424	14721.07
261.494	14788.99
261.564	14794.44
261.634	14824.13
261.703	14751.83
261.773	14780.03
261.843	14825.39
261.913	14812.13
261.983	14746.77
262.053	14766.05
262.123	14765.28
262.192	14727.34
262.262	14766.05
262.332	14718.28
262.402	14749.03
262.472	14751.2
262.541	14698.99
262.611	14748.64
262.681	14724.59
262.751	14763.3
262.821	14764.7
262.89	14729.56
262.96	14759.3
263.03	14843.79
