Data from 20250701_urea_2M_exp3_MAYP1162681_01-39-49-993.txt Node
Date: Wed Jul 02 01:39:49 BST 2025
User: adleo
Spectrometer: MAYP116268
Trigger mode: 0
Integration Time (sec): 4.000000E0
Scans to average: 1
Electric dark correction enabled: true
Nonlinearity correction enabled: true
Boxcar width: 10
XAxis mode: Wavelengths
Number of Pixels in Spectrum: 2068
>>>>>Begin Spectral Data<<<<<
179.565	3686.17
179.642	3880.41
179.718	4028.8
179.795	4159.52
179.871	4273.08
179.948	4340.1
180.024	4410.54
180.101	4491.84
180.177	4545.29
180.254	4625.23
180.33	4704.51
180.407	4974.49
180.483	5262.44
180.56	5550.73
180.636	5814.57
180.712	5777.66
180.789	5812.39
180.865	5850.69
180.942	5884.45
181.018	5923.31
181.095	5972.75
181.171	5993.52
181.248	5994.58
181.324	6047.43
181.4	6074.11
181.477	6106.89
181.553	6151.11
181.63	6223.87
181.706	6275.91
181.782	6304.26
181.859	6303.49
181.935	6318.71
182.011	6305.36
182.088	6356.82
182.164	6426.86
182.24	6476.42
182.317	6506.41
182.393	6500.41
182.469	6547.37
182.546	6594.76
182.622	6610.26
182.698	6594.27
182.775	6629.42
182.851	6681.04
182.927	6657.41
183.003	6641.72
183.08	6624.82
183.156	6659.01
183.232	6650.22
183.308	6607.63
183.385	6635.52
183.461	6695.65
183.537	6698.2
183.613	6741.61
183.69	6714.72
183.766	6678.34
183.842	6701.45
183.918	6716.77
183.995	6760.75
184.071	6770.17
184.147	6747.5
184.223	6710.54
184.299	6749.8
184.375	6714.21
184.452	6735.99
184.528	6861.87
184.604	6897.3
184.68	6940.23
184.756	6959.89
184.832	6973.34
184.908	6991.82
184.985	6989.03
185.061	6933.51
185.137	6966.52
185.213	6924.49
185.289	6926.22
185.365	6904.81
185.441	6900.38
185.517	6945.37
185.593	6932.3
185.669	6928.32
185.745	6968.05
185.822	7022.58
185.898	6998.07
185.974	7030.87
186.05	7001.36
186.126	6929.38
186.202	6906.91
186.278	6894.18
186.354	6861.17
186.43	6881.45
186.506	6880.25
186.582	6881.45
186.658	6903.87
186.734	6831.94
186.81	6842.94
186.886	6855.47
186.962	6894.18
187.038	6881.79
187.114	6855.59
187.19	6887.11
187.266	6852.1
187.341	6847.54
187.417	6824.43
187.493	6818.91
187.569	6831.35
187.645	6811.33
187.721	6772.64
187.797	6803.62
187.873	6819.62
187.949	6800.75
188.025	6778.11
188.101	6782.48
188.176	6796.89
188.252	6781.38
188.328	6808.64
188.404	6810.46
188.48	6795.05
188.556	6770.93
188.632	6772.18
188.707	6779.01
188.783	6763
188.859	6749.8
188.935	6713.87
189.011	6736.73
189.086	6712.96
189.162	6682.36
189.238	6676.08
189.314	6664.02
189.39	6637.75
189.465	6612.77
189.541	6670.13
189.617	6622.4
189.693	6608.14
189.768	6622.03
189.844	6707.77
189.92	6688.76
189.996	6715.66
190.071	6754.33
190.147	6751.68
190.223	6779.36
190.298	6748.03
190.374	6703.27
190.45	6743.07
190.526	6775.93
190.601	6761.76
190.677	6776.07
190.753	6871.2
190.828	6887.34
190.904	6939.9
190.98	6996.69
191.055	7034.51
191.131	7003.89
191.207	7073.45
191.282	7107.16
191.358	7070.17
191.433	7015.94
191.509	7054.53
191.585	7043.63
191.66	7042.33
191.736	7068.08
191.811	7040.93
191.887	7099.18
191.963	7179.76
192.038	7199.7
192.114	7197.78
192.189	7211.66
192.265	7200.18
192.34	7125.17
192.416	7118.69
192.491	7104.55
192.567	7112.2
192.642	7118.06
192.718	7120.08
192.793	7077.08
192.869	7064.06
192.944	7071.31
193.02	7098.03
193.095	7118.69
193.171	7140.12
193.246	7146.61
193.322	7135.08
193.397	7133.78
193.473	7086.05
193.548	7025.88
193.624	7040.4
193.699	7032.66
193.775	7080.92
193.85	7082.75
193.925	7112.59
194.001	7106.26
194.076	7078.49
194.152	7042.48
194.227	7015.47
194.302	6983.01
194.378	6997.61
194.453	6986.23
194.529	7030.34
194.604	6981.09
194.679	6952.84
194.755	6887.53
194.83	6918.93
194.905	6914.7
194.981	6947.04
195.056	6924.8
195.131	6939.36
195.207	6932.05
195.282	6901.17
195.357	6839.31
195.433	6892.88
195.508	6850.16
195.583	6877.2
195.659	6925.21
195.734	6948.66
195.809	6945.97
195.884	6975.12
195.96	6973.39
196.035	7027.87
196.11	7014.8
196.185	7055.25
196.261	7070.67
196.336	7174.74
196.411	7126.18
196.486	7140.65
196.561	7112.63
196.637	7146.01
196.712	7211.07
196.787	7223.37
196.862	7278.14
196.937	7313.02
197.013	7331.34
197.088	7365.07
197.163	7437.25
197.238	7498.99
197.313	7495.48
197.388	7545.09
197.464	7649.36
197.539	7687.23
197.614	7662.48
197.689	7698.68
197.764	7751.16
197.839	7814.29
197.914	7791.64
197.989	7875.5
198.065	7918.2
198.14	8092.01
198.215	8174.79
198.29	8210.5
198.365	8252.4
198.44	8289.53
198.515	8386.72
198.59	8437.87
198.665	8526.74
198.74	8559.9
198.815	8560.67
198.89	8642.27
198.965	8738.21
199.04	8725.94
199.115	8780.16
199.19	8921.29
199.265	8931.44
199.34	8963.6
199.415	9075.03
199.49	9147.06
199.565	9174.98
199.64	9261.96
199.715	9251.7
199.79	9273.75
199.865	9294.17
199.94	9291.71
200.015	9395.53
200.09	9407.57
200.165	9429.82
200.24	9453.03
200.315	9581.43
200.39	9636.09
200.464	9649.43
200.539	9657.62
200.614	9703.6
200.689	9782.49
200.764	9802.68
200.839	9864.92
200.914	9886.78
200.989	9856.28
201.063	9906.27
201.138	9848.95
201.213	9848.09
201.288	9787.5
201.363	9802.86
201.438	9798.43
201.512	9850.62
201.587	9788.82
201.662	9801.68
201.737	9840.79
201.812	9871.14
201.886	9755.74
201.961	9778.48
202.036	9738.62
202.111	9726.67
202.186	9632.34
202.26	9574.06
202.335	9505.76
202.41	9484.72
202.485	9425.22
202.559	9351.31
202.634	9258.19
202.709	9290.24
202.784	9222.31
202.858	9220.96
202.933	9161.17
203.008	9137.09
203.082	9069.32
203.157	9062.63
203.232	8916.45
203.306	8839.02
203.381	8724.63
203.456	8651.33
203.53	8578.02
203.605	8515.73
203.68	8428.26
203.754	8405.57
203.829	8354.31
203.904	8282.34
203.978	8241.43
204.053	8256.92
204.127	8219.45
204.202	8217.82
204.277	8152.54
204.351	8135.03
204.426	8107.4
204.5	8077.29
204.575	7963.34
204.65	8001.74
204.724	7980.03
204.799	8011.13
204.873	8005.98
204.948	7998.14
205.022	7957.47
205.097	7927.62
205.171	7968.98
205.246	8005.12
205.32	8000.5
205.395	7999.49
205.469	7972.1
205.544	7989.18
205.618	7930.11
205.693	7969.56
205.767	7929.02
205.842	8003.97
205.916	7981.84
205.991	7948.7
206.065	7972.85
206.14	8028.39
206.214	8006.3
206.289	7980.42
206.363	8020.48
206.438	8028.13
206.512	8059.79
206.586	8124.23
206.661	8153.54
206.735	8081.68
206.81	8080.81
206.884	8132.89
206.958	8089.18
207.033	8147.59
207.107	8178.35
207.181	8285.18
207.256	8262.33
207.33	8325.78
207.405	8367.57
207.479	8435.07
207.553	8458.5
207.628	8399.07
207.702	8438.56
207.776	8414.65
207.851	8428.21
207.925	8480.54
207.999	8464.27
208.073	8456.72
208.148	8462.93
208.222	8417.74
208.296	8527.09
208.371	8581.89
208.445	8618.66
208.519	8714.06
208.593	8753.19
208.668	8736.34
208.742	8741.3
208.816	8748.51
208.89	8795.27
208.965	8784
209.039	8802.48
209.113	8866.41
209.187	8943.26
209.261	8927.67
209.336	8997.02
209.41	9065.96
209.484	9063.6
209.558	9139.58
209.632	9181.11
209.707	9224.2
209.781	9299.06
209.855	9350.3
209.929	9407.39
210.003	9427.08
210.077	9426.99
210.151	9592.92
210.226	9703.28
210.3	9788.95
210.374	9867.13
210.448	9879.51
210.522	9921.81
210.596	9967.37
210.67	10002.97
210.744	10156.25
210.818	10266.37
210.892	10333.09
210.966	10311.52
211.041	10363.64
211.115	10348.51
211.189	10430.5
211.263	10479.87
211.337	10504.44
211.411	10552.91
211.485	10536.77
211.559	10573.57
211.633	10580.5
211.707	10472.21
211.781	10496.7
211.855	10379.72
211.929	10351.6
212.003	10285.68
212.077	10314.16
212.151	10348.61
212.225	10368.46
212.299	10326.29
212.373	10285.92
212.447	10267.37
212.52	10365.12
212.594	10372.16
212.668	10406.65
212.742	10353.75
212.816	10333.56
212.89	10305.77
212.964	10293.62
213.038	10294.64
213.112	10331.26
213.186	10379.18
213.26	10297.47
213.333	10141.31
213.407	10158.55
213.481	10158.69
213.555	10191.19
213.629	10145.75
213.703	10082.44
213.777	10067.31
213.85	9996.26
213.924	10096.38
213.998	10089.83
214.072	10052
214.146	9999.49
214.219	9983.25
214.293	9958.5
214.367	9947.61
214.441	9972.52
214.515	9924.68
214.588	9825.8
214.662	9700
214.736	9614.57
214.81	9625.5
214.883	9640.51
214.957	9589.77
215.031	9534.62
215.105	9444.84
215.178	9377.71
215.252	9336.64
215.326	9234.57
215.4	9151.21
215.473	8972.25
215.547	8884.94
215.621	8814.77
215.694	8808.75
215.768	8705.11
215.842	8641.01
215.915	8571.63
215.989	8455.72
216.063	8396.64
216.136	8380.85
216.21	8355.02
216.284	8366.24
216.357	8336.5
216.431	8292.52
216.504	8288.87
216.578	8339.21
216.652	8348.15
216.725	8327.46
216.799	8331.16
216.873	8315.63
216.946	8320.96
217.02	8277.98
217.093	8247.87
217.167	8154.93
217.24	8069.37
217.314	8034.56
217.387	7984.24
217.461	7937.05
217.535	7957.64
217.608	7892.76
217.682	7862.36
217.755	7875.01
217.829	7817.61
217.902	7808.09
217.976	7791.16
218.049	7739.61
218.123	7667.19
218.196	7666.91
218.27	7623.53
218.343	7549.59
218.417	7546.46
218.49	7520.89
218.563	7563.34
218.637	7567.95
218.71	7636.15
218.784	7664.62
218.857	7699.23
218.931	7720.95
219.004	7732.88
219.077	7757.9
219.151	7779.1
219.224	7772.8
219.298	7765.82
219.371	7809.07
219.444	7763.12
219.518	7765.96
219.591	7781.77
219.665	7887.65
219.738	7900.93
219.811	7883.48
219.885	7930.42
219.958	7956.06
220.031	7963.22
220.105	7987.32
220.178	7990.4
220.251	7966.82
220.325	7987.85
220.398	8008.15
220.471	8032.82
220.544	8066.2
220.618	8038.15
220.691	8061.38
220.764	8079.27
220.838	8106.06
220.911	8088.84
220.984	8178.53
221.057	8223.74
221.131	8248.46
221.204	8146.52
221.277	8213.6
221.35	8343.17
221.424	8336.87
221.497	8349.57
221.57	8368.9
221.643	8403.99
221.716	8459.87
221.79	8468.24
221.863	8479.55
221.936	8486.77
222.009	8498.26
222.082	8532.25
222.155	8539.7
222.229	8608.54
222.302	8638.75
222.375	8646.93
222.448	8684.52
222.521	8686.88
222.594	8686.3
222.667	8661.39
222.74	8721.24
222.814	8714.94
222.887	8697.12
222.96	8756.08
223.033	8803.31
223.106	8835.55
223.179	8860.59
223.252	8865.93
223.325	8891.87
223.398	8905.74
223.471	8931.77
223.544	8956.65
223.617	8967.43
223.69	8992.41
223.763	8950.48
223.837	8975.56
223.91	9003.19
223.983	8958.05
224.056	8927.68
224.129	8950.83
224.202	9008.28
224.275	8998.6
224.348	8966.35
224.42	8929.24
224.493	8866.18
224.566	8841.14
224.639	8854.28
224.712	8824.52
224.785	8811.28
224.858	8803.77
224.931	8783.36
225.004	8749.48
225.077	8748.42
225.15	8661.81
225.223	8665.57
225.296	8746.52
225.369	8689.06
225.442	8660.75
225.514	8682.6
225.587	8702.23
225.66	8701.26
225.733	8694.77
225.806	8705.74
225.879	8704.15
225.952	8679.09
226.025	8721.44
226.097	8766.56
226.17	8760.11
226.243	8697.36
226.316	8696.45
226.389	8700.93
226.461	8726.01
226.534	8747.13
226.607	8736.88
226.68	8816.99
226.753	8800.39
226.825	8718.38
226.898	8776.61
226.971	8773.05
227.044	8786.43
227.117	8796.87
227.189	8822.58
227.262	8866.59
227.335	8881.85
227.407	8873.29
227.48	8903.41
227.553	8917.9
227.626	8903.64
227.698	8913.66
227.771	8948.63
227.844	8925.91
227.916	8942.08
227.989	8903.09
228.062	8892.55
228.134	8980.86
228.207	8980.52
228.28	8982.21
228.352	8999.25
228.425	9005.65
228.498	9054.66
228.57	9038.88
228.643	9092.28
228.716	9088.81
228.788	9073.55
228.861	9069.4
228.934	9136.75
229.006	9145.56
229.079	9150.81
229.151	9137.8
229.224	9098.34
229.296	9125.88
229.369	9227.73
229.442	9276.33
229.514	9259.05
229.587	9310.8
229.659	9232.51
229.732	9245.75
229.804	9281.47
229.877	9355.3
229.949	9382.18
230.022	9431.22
230.094	9430.21
230.167	9413.88
230.239	9370.65
230.312	9361.12
230.384	9428.17
230.457	9423.74
230.529	9428.89
230.602	9433.99
230.674	9445.07
230.747	9488.72
230.819	9524.3
230.892	9403.54
230.964	9406.86
231.037	9438.57
231.109	9428.61
231.181	9471.36
231.254	9434.04
231.326	9421.91
231.399	9395.8
231.471	9374.7
231.544	9297.54
231.616	9345.58
231.688	9360.61
231.761	9352.67
231.833	9336.79
231.905	9251.54
231.978	9251.78
232.05	9241
232.122	9240.28
232.195	9213.31
232.267	9256.7
232.339	9228.72
232.412	9303.14
232.484	9273.56
232.556	9248.25
232.629	9313.14
232.701	9326.14
232.773	9347.75
232.846	9342.31
232.918	9352.29
232.99	9368.9
233.062	9413.49
233.135	9422.98
233.207	9382.67
233.279	9427.87
233.351	9462.92
233.424	9466.82
233.496	9441.49
233.568	9522.79
233.64	9490.14
233.713	9507.28
233.785	9498.66
233.857	9513.54
233.929	9462.07
234.001	9530.53
234.074	9596.87
234.146	9528.47
234.218	9530.73
234.29	9523.46
234.362	9508.35
234.434	9462.25
234.507	9425.9
234.579	9373.6
234.651	9352.94
234.723	9391.95
234.795	9405.24
234.867	9392.96
234.939	9454.46
235.012	9470.59
235.084	9474.44
235.156	9507.04
235.228	9488.21
235.3	9471.69
235.372	9485.76
235.444	9538.24
235.516	9461.3
235.588	9459.57
235.66	9471.37
235.732	9448.97
235.804	9472.57
235.876	9520.66
235.948	9583.33
236.02	9599.32
236.092	9610.24
236.164	9629.07
236.236	9622.28
236.308	9627.39
236.38	9661.77
236.452	9639.66
236.524	9658.64
236.596	9717.19
236.668	9752.4
236.74	9780.23
236.812	9808.7
236.884	9840.11
236.956	9854.85
237.028	9842.52
237.1	9833.04
237.172	9908.86
237.244	9981.89
237.316	10043.12
237.388	10025.59
237.46	10002.71
237.532	10063.02
237.604	10057.58
237.675	10129.99
237.747	10179.71
237.819	10166.27
237.891	10176.68
237.963	10166.32
238.035	10168.01
238.107	10056.56
238.178	10118.25
238.25	10120.85
238.322	10212.6
238.394	10164.67
238.466	10165.1
238.538	10211.14
238.609	10249.58
238.681	10190.08
238.753	10168.63
238.825	10184.15
238.897	10219.65
238.968	10304.99
239.04	10284.71
239.112	10397.48
239.184	10354.06
239.255	10343.8
239.327	10374.53
239.399	10395.53
239.471	10444.38
239.542	10477.09
239.614	10550.84
239.686	10459.54
239.758	10515.81
239.829	10482.26
239.901	10550.96
239.973	10570.57
240.044	10601.36
240.116	10615.76
240.188	10633.25
240.259	10646.26
240.331	10633.49
240.403	10668.13
240.474	10614.44
240.546	10602.2
240.618	10538.84
240.689	10537.4
240.761	10559.76
240.833	10622.97
240.904	10617
240.976	10620.08
241.048	10634.15
241.119	10666.73
241.191	10719.05
241.262	10790.67
241.334	10792.6
241.405	10795.88
241.477	10799.06
241.549	10810.72
241.62	10835.25
241.692	10878.13
241.763	10939.14
241.835	10958.28
241.906	10972.83
241.978	10945.12
242.049	11008.39
242.121	11071.41
242.192	11144.13
242.264	11109
242.335	11068.24
242.407	11119.8
242.478	11117.2
242.55	11136.47
242.621	11122.74
242.693	11124.52
242.764	11102.35
242.836	11103.07
242.907	11135.41
242.979	11169.67
243.05	11190.4
243.122	11216.81
243.193	11223.55
243.264	11149.58
243.336	11151.36
243.407	11191.65
243.479	11270.83
243.55	11294.49
243.622	11314.88
243.693	11312.66
243.764	11387.22
243.836	11367.08
243.907	11346.69
243.978	11359.03
244.05	11388.28
244.121	11340.09
244.192	11388.72
244.264	11341.34
244.335	11361.25
244.407	11310.74
244.478	11322.79
244.549	11310.07
244.62	11264.09
244.692	11259.23
244.763	11308.14
244.834	11300.09
244.906	11270.88
244.977	11297.78
245.048	11346.85
245.119	11319.28
245.191	11294.85
245.262	11228.58
245.333	11302.02
245.405	11330.46
245.476	11357.93
245.547	11376.39
245.618	11431.71
245.689	11442.41
245.761	11479.61
245.832	11475.47
245.903	11520.77
245.974	11546.36
246.045	11567.23
246.117	11651.77
246.188	11632.25
246.259	11610.85
246.33	11629.51
246.401	11644.78
246.473	11599.86
246.544	11590.56
246.615	11657.07
246.686	11665.65
246.757	11741.17
246.828	11715.58
246.899	11783.16
246.97	11749.23
247.042	11735.4
247.113	11776.52
247.184	11866.42
247.255	11864.44
247.326	11895.72
247.397	11904.01
247.468	11910.76
247.539	11927.39
247.61	11884.16
247.681	11933.02
247.752	11985.61
247.823	11960.93
247.894	11977.27
247.965	11959.63
248.037	11942.62
248.108	11878.8
248.179	11884.49
248.25	11876.44
248.321	11906.75
248.392	11859.61
248.463	11949.54
248.534	11951.23
248.605	11976.68
248.675	11941.44
248.746	11957.06
248.817	11968.19
248.888	11993.64
248.959	11946.02
249.03	11973.02
249.101	11983.62
249.172	11972.39
249.243	11903.67
249.314	11974.95
249.385	11981.65
249.456	12009.32
249.527	12002.66
249.598	12038.81
249.669	12038.62
249.739	12051.88
249.81	12071.64
249.881	12024.89
249.952	12015.97
250.023	12009.65
250.094	11955.18
250.165	11924.72
250.235	11928.14
250.306	11935.23
250.377	11894.93
250.448	11920.57
250.519	11850.73
250.59	11905.68
250.66	11898.02
250.731	11968.62
250.802	11961.83
250.873	11978.65
250.944	12003.52
251.014	11999.81
251.085	12086.63
251.156	12104.65
251.227	12153.53
251.297	12202.37
251.368	12258.66
251.439	12288.74
251.51	12346.88
251.58	12334.1
251.651	12332.32
251.722	12386.7
251.792	12337.72
251.863	12345.24
251.934	12407.23
252.005	12523.73
252.075	12536.85
252.146	12591.07
252.217	12648.05
252.287	12689.6
252.358	12690.91
252.429	12762.78
252.499	12760.61
252.57	12761.29
252.641	12810.98
252.711	12821.88
252.782	12774.45
252.852	12848.83
252.923	12859.29
252.994	12869.07
253.064	12924.41
253.135	12904.02
253.205	12876.11
253.276	12956.42
253.347	13022.12
253.417	13001.05
253.488	12980.66
253.558	12959.54
253.629	12956.31
253.699	12965.47
253.77	13000.76
253.841	13005.15
253.911	13013.78
253.982	13028.86
254.052	13062.22
254.123	13073.26
254.193	13076.49
254.264	13210.55
254.334	13175.84
254.405	13146.49
254.475	13118.67
254.546	13118.57
254.616	13177.48
254.687	13212.62
254.757	13231.81
254.827	13230.17
254.898	13256.15
254.968	13261.5
255.039	13247.77
255.109	13290.23
255.18	13253.65
255.25	13178.3
255.321	13207.56
255.391	13167.98
255.461	13243.18
255.532	13158.39
255.602	13154.39
255.673	13098.23
255.743	13067.67
255.813	12995.51
255.884	13039.66
255.954	13071.72
256.024	13147.11
256.095	13159.99
256.165	13123.74
256.235	13139.93
256.306	13127.06
256.376	13174.3
256.446	13213.4
256.517	13250.9
256.587	13292.65
256.657	13316.99
256.728	13338.69
256.798	13347.03
256.868	13337.1
256.938	13314.78
257.009	13365.3
257.079	13397.21
257.149	13498.73
257.219	13433.99
257.29	13477.85
257.36	13422.71
257.43	13457.46
257.5	13381.1
257.571	13363.85
257.641	13397.88
257.711	13367.51
257.781	13395.37
257.852	13412.2
257.922	13347.12
257.992	13344.42
258.062	13328.51
258.132	13375.03
258.202	13373.25
258.273	13385.3
258.343	13459.25
258.413	13442.13
258.483	13443.53
258.553	13421.26
258.623	13389.78
258.693	13416.68
258.764	13486
258.834	13551.75
258.904	13573.98
258.974	13570.22
259.044	13584.2
259.114	13610.28
259.184	13639.73
259.254	13652.22
259.324	13591.04
259.394	13637.61
259.464	13713.82
259.535	13731.66
259.605	13722.4
259.675	13723.22
259.745	13762.08
259.815	13739.66
259.885	13739.23
259.955	13853.08
260.025	13839.92
260.095	13851.4
260.165	13895.36
260.235	13950.6
260.305	13931.46
260.375	13891.65
260.445	13977.26
260.515	14037.76
260.585	14087.36
260.655	14095.51
260.725	14140.29
260.795	14184.79
260.865	14261.96
260.934	14230.15
261.004	14261.91
261.074	14266.88
261.144	14328.92
261.214	14362.76
261.284	14368.06
261.354	14415.84
261.424	14369.66
261.494	14442.16
261.564	14447.66
261.634	14459.61
261.703	14392.56
261.773	14422.79
261.843	14459.42
261.913	14452.24
261.983	14401.33
262.053	14418.4
262.123	14409.09
262.192	14370.53
262.262	14404.85
262.332	14357.8
262.402	14396.08
262.472	14398.68
262.541	14338.95
262.611	14384.99
262.681	14365.18
262.751	14400.51
262.821	14404.32
262.89	14378.34
262.96	14405.86
263.03	14486.7
263.1	14513.98
263.169	14540.59
