Data from 20250701_urea_2M_exp3_MAYP1162681_01-09-50-202.txt Node
Date: Wed Jul 02 01:09:50 BST 2025
User: adleo
Spectrometer: MAYP116268
Trigger mode: 0
Integration Time (sec): 4.000000E0
Scans to average: 1
Electric dark correction enabled: true
Nonlinearity correction enabled: true
Boxcar width: 10
XAxis mode: Wavelengths
Number of Pixels in Spectrum: 2068
>>>>>Begin Spectral Data<<<<<
179.565	3693.63
179.642	3888.24
179.718	4036.09
179.795	4168.94
179.871	4285.76
179.948	4348.07
180.024	4419.69
180.101	4496.39
180.177	4549.39
180.254	4630.92
180.33	4711.99
180.407	4983.5
180.483	5274.43
180.56	5567.75
180.636	5836.34
180.712	5796.55
180.789	5832.91
180.865	5878.5
180.942	5908.75
181.018	5943.29
181.095	5991.54
181.171	6008.04
181.248	6010.05
181.324	6064.39
181.4	6086.13
181.477	6121.84
181.553	6167.02
181.63	6237.96
181.706	6296.67
181.782	6319.54
181.859	6318.73
181.935	6335.48
182.011	6321.8
182.088	6374.9
182.164	6440.43
182.24	6489.66
182.317	6518.89
182.393	6507.99
182.469	6553.36
182.546	6600.6
182.622	6619.23
182.698	6601.89
182.775	6648.23
182.851	6695.39
182.927	6671.9
183.003	6660.48
183.08	6639.02
183.156	6668.4
183.232	6655.34
183.308	6612.07
183.385	6645.67
183.461	6701
183.537	6700.86
183.613	6740.19
183.69	6708.54
183.766	6669.52
183.842	6689.7
183.918	6707.03
183.995	6754.24
184.071	6768.22
184.147	6749.87
184.223	6713.87
184.299	6757.35
184.375	6716.05
184.452	6740.04
184.528	6866.31
184.604	6902.75
184.68	6946.5
184.756	6975.24
184.832	6991.71
184.908	7014.18
184.985	7013.41
185.061	6959.95
185.137	6991.28
185.213	6955.5
185.289	6963.47
185.365	6945.66
185.441	6942.44
185.517	6991.32
185.593	6978.16
185.669	6967.54
185.745	7000.93
185.822	7055.66
185.898	7023.32
185.974	7057.41
186.05	7030.5
186.126	6955.68
186.202	6934.55
186.278	6922.35
186.354	6888.66
186.43	6908.75
186.506	6902.66
186.582	6896.51
186.658	6916.82
186.734	6851.41
186.81	6858.32
186.886	6868.31
186.962	6906.02
187.038	6893.57
187.114	6864.1
187.19	6896.59
187.266	6864.51
187.341	6867.87
187.417	6843.81
187.493	6846.93
187.569	6860.96
187.645	6839.97
187.721	6800.14
187.797	6825.64
187.873	6836.31
187.949	6820.03
188.025	6798.83
188.101	6805.7
188.176	6830
188.252	6821.12
188.328	6846.03
188.404	6848.19
188.48	6831.29
188.556	6809.71
188.632	6806.69
188.707	6806.4
188.783	6791.79
188.859	6776
188.935	6735.74
189.011	6763.6
189.086	6739.45
189.162	6707.35
189.238	6698.9
189.314	6689.25
189.39	6671.48
189.465	6650.39
189.541	6703.09
189.617	6652.29
189.693	6635.59
189.768	6645.63
189.844	6724.5
189.92	6695.41
189.996	6720.2
190.071	6757.57
190.147	6753.1
190.223	6787.55
190.298	6764.59
190.374	6716.37
190.45	6760.44
190.526	6789.17
190.601	6772.16
190.677	6779.79
190.753	6869.4
190.828	6891.2
190.904	6943.77
190.98	6993.84
191.055	7032.76
191.131	7002.34
191.207	7075.97
191.282	7110.83
191.358	7073.65
191.433	7025.77
191.509	7075.02
191.585	7066.32
191.66	7067.72
191.736	7099.81
191.811	7071.08
191.887	7128.61
191.963	7208.75
192.038	7224.17
192.114	7230.13
192.189	7240.41
192.265	7233.55
192.34	7164.31
192.416	7152.39
192.491	7137.2
192.567	7141.29
192.642	7144.85
192.718	7144.51
192.793	7103.76
192.869	7085.65
192.944	7098.96
193.02	7125.1
193.095	7136.01
193.171	7153.21
193.246	7151.05
193.322	7139.23
193.397	7133.9
193.473	7082.7
193.548	7020.52
193.624	7041.52
193.699	7032.01
193.775	7088.3
193.85	7091.09
193.925	7115.98
194.001	7113.34
194.076	7086.58
194.152	7053.22
194.227	7032.27
194.302	7004.03
194.378	7009.89
194.453	7003.99
194.529	7046.09
194.604	6994.77
194.679	6973.05
194.755	6911.49
194.83	6952.6
194.905	6940.35
194.981	6973.31
195.056	6948.44
195.131	6970.34
195.207	6963.27
195.282	6934.4
195.357	6865.91
195.433	6919.48
195.508	6878.82
195.583	6905.91
195.659	6959.31
195.734	6979.06
195.809	6974.84
195.884	7006.1
195.96	7013.59
196.035	7065.62
196.11	7048.22
196.185	7088.58
196.261	7097.99
196.336	7203.21
196.411	7154.75
196.486	7176.09
196.561	7154.65
196.637	7187.46
196.712	7247.99
196.787	7256.21
196.862	7308.06
196.937	7338.47
197.013	7351.26
197.088	7386.91
197.163	7454.24
197.238	7507.4
197.313	7509.95
197.388	7549.71
197.464	7648.98
197.539	7686.04
197.614	7663.4
197.689	7708.31
197.764	7760.79
197.839	7830.02
197.914	7811.31
197.989	7892.1
198.065	7935.14
198.14	8105.31
198.215	8194.39
198.29	8228.75
198.365	8267.14
198.44	8305.95
198.515	8408.39
198.59	8465.36
198.665	8553.94
198.74	8585.08
198.815	8593.89
198.89	8667.99
198.965	8767.72
199.04	8756.07
199.115	8809.29
199.19	8945.08
199.265	8950.71
199.34	8987.63
199.415	9100.56
199.49	9173.61
199.565	9197.29
199.64	9280.43
199.715	9266.75
199.79	9286.05
199.865	9306.27
199.94	9309.11
200.015	9408.89
200.09	9421.84
200.165	9440.62
200.24	9461.52
200.315	9590.79
200.39	9635.67
200.464	9662.83
200.539	9668.47
200.614	9718.35
200.689	9796.9
200.764	9819.79
200.839	9876.25
200.914	9890.22
200.989	9856.54
201.063	9905.38
201.138	9853.06
201.213	9851.81
201.288	9785.98
201.363	9804.38
201.438	9807.55
201.512	9859.36
201.587	9802.42
201.662	9816.25
201.737	9852.76
201.812	9880.65
201.886	9774.16
201.961	9804.23
202.036	9761.23
202.111	9753.14
202.186	9656.49
202.26	9601.82
202.335	9533.23
202.41	9517.49
202.485	9464.34
202.559	9404.39
202.634	9310.01
202.709	9338.84
202.784	9276.1
202.858	9277.21
202.933	9217.03
203.008	9192.86
203.082	9125.66
203.157	9119.44
203.232	8973.55
203.306	8902.67
203.381	8793.96
203.456	8721.08
203.53	8645.02
203.605	8577.54
203.68	8496.37
203.754	8472.77
203.829	8420.25
203.904	8349.92
203.978	8307.18
204.053	8318.29
204.127	8270.23
204.202	8266.43
204.277	8205.87
204.351	8178.59
204.426	8149.38
204.5	8118.54
204.575	8001.6
204.65	8035.77
204.724	8013.29
204.799	8038.28
204.873	8027.98
204.948	8019.18
205.022	7972.39
205.097	7942.12
205.171	7989.78
205.246	8016.05
205.32	8017.97
205.395	8012.05
205.469	7984.42
205.544	8003.72
205.618	7938.88
205.693	7972.98
205.767	7930.71
205.842	8004.71
205.916	7989.17
205.991	7963.29
206.065	7982.39
206.14	8033.85
206.214	8013.59
206.289	7987.51
206.363	8030.75
206.438	8037.34
206.512	8060.96
206.586	8128.09
206.661	8158.8
206.735	8081.79
206.81	8081.36
206.884	8124.73
206.958	8080.54
207.033	8137.95
207.107	8162.31
207.181	8275.15
207.256	8258.69
207.33	8322.76
207.405	8362.73
207.479	8423.88
207.553	8447.02
207.628	8393.02
207.702	8432.8
207.776	8415.05
207.851	8423.85
207.925	8473.96
207.999	8463.52
208.073	8461.93
208.148	8467.85
208.222	8426.03
208.296	8538.56
208.371	8598.12
208.445	8635.57
208.519	8736.36
208.593	8774.28
208.668	8761.67
208.742	8770.77
208.816	8777.07
208.89	8825.13
208.965	8819.25
209.039	8847.42
209.113	8906.43
209.187	8977.17
209.261	8963.51
209.336	9028.2
209.41	9095.93
209.484	9096.32
209.558	9167.57
209.632	9208.72
209.707	9252.73
209.781	9326.63
209.855	9376.57
209.929	9432.55
210.003	9457.3
210.077	9453.02
210.151	9621.12
210.226	9736.06
210.3	9825.16
210.374	9904.88
210.448	9916.92
210.522	9953.82
210.596	9993.08
210.67	10023.09
210.744	10176.51
210.818	10285.38
210.892	10352.39
210.966	10333.32
211.041	10384.23
211.115	10374.79
211.189	10450.8
211.263	10499.41
211.337	10515.93
211.411	10563.39
211.485	10544.6
211.559	10578.12
211.633	10586.79
211.707	10472.38
211.781	10497.64
211.855	10378.2
211.929	10345.6
212.003	10279.15
212.077	10303.24
212.151	10330.42
212.225	10360.87
212.299	10325.98
212.373	10281.08
212.447	10268.17
212.52	10370.74
212.594	10375.07
212.668	10408.41
212.742	10361.39
212.816	10342.55
212.89	10324.29
212.964	10315.38
213.038	10315.48
213.112	10355.23
213.186	10401.47
213.26	10322.51
213.333	10155.31
213.407	10165.14
213.481	10166.29
213.555	10201.58
213.629	10158.98
213.703	10095.39
213.777	10079.73
213.85	10006.6
213.924	10112.51
213.998	10094.39
214.072	10059.21
214.146	10006.85
214.219	9986.42
214.293	9962.87
214.367	9952.85
214.441	9971.3
214.515	9924.32
214.588	9835.32
214.662	9700.86
214.736	9613.26
214.81	9627.26
214.883	9645.55
214.957	9594.04
215.031	9542.45
215.105	9448.68
215.178	9379.14
215.252	9346.16
215.326	9239.51
215.4	9151.01
215.473	8967
215.547	8884.8
215.621	8810.23
215.694	8804.55
215.768	8703.52
215.842	8636.77
215.915	8563.73
215.989	8451.71
216.063	8386.13
216.136	8366.06
216.21	8344.18
216.284	8353.71
216.357	8329.21
216.431	8283.84
216.504	8278.36
216.578	8331.88
216.652	8341.06
216.725	8325.76
216.799	8329.22
216.873	8317.73
216.946	8326.29
217.02	8291.05
217.093	8261.51
217.167	8166.59
217.24	8084.83
217.314	8055.12
217.387	8009.89
217.461	7966.07
217.535	7990.65
217.608	7931.3
217.682	7902.77
217.755	7916.39
217.829	7856.06
217.902	7838.36
217.976	7818.36
218.049	7769.16
218.123	7691.07
218.196	7686.69
218.27	7648.17
218.343	7577.3
218.417	7573.94
218.49	7554.85
218.563	7594.94
218.637	7602.21
218.71	7672.72
218.784	7696.81
218.857	7727.1
218.931	7749.73
219.004	7760.99
219.077	7776.29
219.151	7795.52
219.224	7786.67
219.298	7781.09
219.371	7829.19
219.444	7787.23
219.518	7798.57
219.591	7819.87
219.665	7924.41
219.738	7936.76
219.811	7919.17
219.885	7966.11
219.958	7997
220.031	7999.26
220.105	8021.77
220.178	8027.55
220.251	8003.63
220.325	8028.99
220.398	8048.71
220.471	8070.3
220.544	8105.18
220.618	8079.63
220.691	8101.85
220.764	8122.67
220.838	8149.71
220.911	8143.41
220.984	8235.7
221.057	8273.56
221.131	8293.95
221.204	8194.75
221.277	8271.79
221.35	8393.67
221.424	8384.67
221.497	8393.86
221.57	8414.3
221.643	8447.75
221.716	8493.57
221.79	8492.61
221.863	8499.73
221.936	8508.11
222.009	8519.7
222.082	8545.3
222.155	8558.78
222.229	8628
222.302	8654.22
222.375	8662.93
222.448	8695.85
222.521	8698.5
222.594	8697.11
222.667	8674.84
222.74	8733.49
222.814	8728.29
222.887	8711.19
222.96	8762.79
223.033	8804.58
223.106	8831.14
223.179	8855.36
223.252	8865.14
223.325	8904.07
223.398	8923.18
223.471	8955.91
223.544	8982.52
223.617	9000.67
223.69	9021.99
223.763	8977.51
223.837	9002.73
223.91	9021.99
223.983	8970.98
224.056	8928
224.129	8954.43
224.202	9007.49
224.275	8992.62
224.348	8959.79
224.42	8925.9
224.493	8868.86
224.566	8848.25
224.639	8867.36
224.712	8842.94
224.785	8832.64
224.858	8814.78
224.931	8793.07
225.004	8750.33
225.077	8747.73
225.15	8651.93
225.223	8649.91
225.296	8742.57
225.369	8681.69
225.442	8655.7
225.514	8676.68
225.587	8701.31
225.66	8705.26
225.733	8711.95
225.806	8728.46
225.879	8715.61
225.952	8682.56
226.025	8734.87
226.097	8783.37
226.17	8770.23
226.243	8705.27
226.316	8699.97
226.389	8708.69
226.461	8728.76
226.534	8747.48
226.607	8734.53
226.68	8822.68
226.753	8819.98
226.825	8726.7
226.898	8789.84
226.971	8793.59
227.044	8810
227.117	8824.59
227.189	8842.45
227.262	8874.04
227.335	8885.11
227.407	8883.91
227.48	8915.85
227.553	8929.53
227.626	8910.74
227.698	8921.77
227.771	8960.2
227.844	8940.52
227.916	8954.33
227.989	8920.78
228.062	8917.07
228.134	9004.08
228.207	9002.25
228.28	8995.22
228.352	9006.68
228.425	9010.48
228.498	9056.61
228.57	9036.92
228.643	9090.52
228.716	9093.98
228.788	9081.22
228.861	9077.28
228.934	9145.49
229.006	9153.53
229.079	9151.41
229.151	9135.27
229.224	9101.01
229.296	9128.93
229.369	9232.33
229.442	9285.5
229.514	9265.78
229.587	9307.37
229.659	9237.21
229.732	9250.21
229.804	9288.58
229.877	9372.24
229.949	9400.32
230.022	9453.36
230.094	9454.22
230.167	9442.9
230.239	9397.89
230.312	9387.88
230.384	9462.83
230.457	9456.18
230.529	9464.56
230.602	9465.52
230.674	9477.7
230.747	9527.71
230.819	9562.14
230.892	9441.32
230.964	9438.28
231.037	9460.66
231.109	9453.68
231.181	9493.15
231.254	9459.02
231.326	9444.82
231.399	9413.93
231.471	9391.34
231.544	9307.25
231.616	9359.33
231.688	9361.4
231.761	9356.45
231.833	9341.96
231.905	9251.07
231.978	9252.81
232.05	9244.38
232.122	9244.77
232.195	9222.52
232.267	9248.72
232.339	9222.9
232.412	9294.34
232.484	9268.77
232.556	9254.04
232.629	9318.35
232.701	9338.14
232.773	9349.41
232.846	9341.17
232.918	9354.08
232.99	9366.51
233.062	9414.91
233.135	9425.21
233.207	9394.1
233.279	9436.75
233.351	9472.62
233.424	9475.66
233.496	9446.52
233.568	9523.96
233.64	9488.19
233.713	9508.99
233.785	9507.89
233.857	9521.42
233.929	9461.77
234.001	9531.96
234.074	9591.41
234.146	9521.28
234.218	9513.43
234.29	9520.07
234.362	9504.14
234.434	9452.65
234.507	9413.7
234.579	9355.82
234.651	9331.4
234.723	9364.97
234.795	9381.25
234.867	9369.74
234.939	9428.88
235.012	9445.77
235.084	9450.54
235.156	9493.64
235.228	9469.22
235.3	9452.22
235.372	9463.4
235.444	9526.86
235.516	9444.04
235.588	9455.6
235.66	9479.2
235.732	9451.75
235.804	9474.09
235.876	9525.61
235.948	9593.81
236.02	9617.21
236.092	9635.75
236.164	9653.23
236.236	9647.35
236.308	9643.59
236.38	9678.17
236.452	9660.06
236.524	9680.34
236.596	9743.52
236.668	9772.13
236.74	9802.95
236.812	9838.54
236.884	9867.98
236.956	9879.87
237.028	9871.02
237.1	9852.14
237.172	9918.86
237.244	9994.92
237.316	10045.12
237.388	10023.93
237.46	9998.78
237.532	10057.45
237.604	10050.23
237.675	10118.74
237.747	10172.17
237.819	10161.72
237.891	10170.63
237.963	10160.37
238.035	10159.45
238.107	10041.51
238.178	10102.75
238.25	10107.19
238.322	10193.11
238.394	10149.22
238.466	10145.75
238.538	10191.99
238.609	10233.12
238.681	10176.22
238.753	10161.81
238.825	10183.74
238.897	10215.28
238.968	10298.89
239.04	10282.66
239.112	10397.02
239.184	10359.73
239.255	10349.46
239.327	10382.41
239.399	10393.92
239.471	10444.02
239.542	10481.84
239.614	10558
239.686	10470.59
239.758	10525.52
239.829	10493.52
239.901	10555.57
239.973	10571.75
240.044	10600.13
240.116	10617.19
240.188	10638.24
240.259	10646.19
240.331	10633.85
240.403	10672.49
240.474	10623.43
240.546	10615.57
240.618	10554.62
240.689	10556.83
240.761	10578.04
240.833	10651.67
240.904	10657.79
240.976	10661.98
241.048	10682.07
241.119	10714.94
241.191	10771.98
241.262	10832.76
241.334	10832.81
241.405	10842.64
241.477	10848.9
241.549	10859.12
241.62	10883.21
241.692	10926.72
241.763	10990.82
241.835	11012.17
241.906	11029.13
241.978	11007.16
242.049	11071.06
242.121	11132.16
242.192	11198.95
242.264	11165.12
242.335	11111.1
242.407	11156.88
242.478	11156.49
242.55	11171.43
242.621	11151.91
242.693	11144.93
242.764	11131.82
242.836	11131.57
242.907	11162.23
242.979	11190.03
243.05	11218.22
243.122	11244.83
243.193	11243.09
243.264	11171.04
243.336	11170.56
243.407	11207.09
243.479	11280.73
243.55	11301.36
243.622	11318.28
243.693	11319.82
243.764	11392.59
243.836	11368.02
243.907	11357.32
243.978	11360.55
244.05	11388.17
244.121	11347.83
244.192	11389.47
244.264	11345.95
244.335	11358.91
244.407	11307.44
244.478	11326.67
244.549	11315.59
244.62	11269.56
244.692	11267.49
244.763	11310
244.834	11305.37
244.906	11287.2
244.977	11311.3
245.048	11356.08
245.119	11331.36
245.191	11299.21
245.262	11232.22
245.333	11311.34
245.405	11327.63
245.476	11366.81
245.547	11384.12
245.618	11439.01
245.689	11453.51
245.761	11485.28
245.832	11492.94
245.903	11540.79
245.974	11571.93
246.045	11585.18
246.117	11669.91
246.188	11658.69
246.259	11643.55
246.33	11661.05
246.401	11667.84
246.473	11624.51
246.544	11610.73
246.615	11670.3
246.686	11681.67
246.757	11750.49
246.828	11729.38
246.899	11800.63
246.97	11767.52
247.042	11749.78
247.113	11796.15
247.184	11880.08
247.255	11875.79
247.326	11909.48
247.397	11918.73
247.468	11926.16
247.539	11941.72
247.61	11886.44
247.681	11926.87
247.752	11985.15
247.823	11959.02
247.894	11975.03
247.965	11950.74
248.037	11941.14
248.108	11881.62
248.179	11887.26
248.25	11884.17
248.321	11916.37
248.392	11873.08
248.463	11952.36
248.534	11955.3
248.605	11977.38
248.675	11956.7
248.746	11976.27
248.817	11981.09
248.888	12003.99
248.959	11945.19
249.03	11971.74
249.101	11994.59
249.172	11986.3
249.243	11907.74
249.314	11973.92
249.385	11980.72
249.456	12011.17
249.527	12001.87
249.598	12031.03
249.669	12029.54
249.739	12040.77
249.81	12051.71
249.881	12003.17
249.952	11994.59
250.023	11999.03
250.094	11942.05
250.165	11903.68
250.235	11905.61
250.306	11916.16
250.377	11879.63
250.448	11914.81
250.519	11852.2
250.59	11906.81
250.66	11903.73
250.731	11981.56
250.802	11976.31
250.873	11992.8
250.944	12018.73
251.014	12014.2
251.085	12105.02
251.156	12137.36
251.227	12188.98
251.297	12245.72
251.368	12298.45
251.439	12343.81
251.51	12386.57
251.58	12376.3
251.651	12373.75
251.722	12427.83
251.792	12380.84
251.863	12387.78
251.934	12447.94
252.005	12558.66
252.075	12569.26
252.146	12621.66
252.217	12664.94
252.287	12710.6
252.358	12719.71
252.429	12788.06
252.499	12781.75
252.57	12792.59
252.641	12836.27
252.711	12841.96
252.782	12790.04
252.852	12868.95
252.923	12868.37
252.994	12887.17
253.064	12939.09
253.135	12920.58
253.205	12894.83
253.276	12961.74
253.347	13029.85
253.417	13004.79
253.488	12987
253.558	12970.56
253.629	12965.11
253.699	12984.15
253.77	13011.25
253.841	13013.08
253.911	13020.94
253.982	13038.67
254.052	13059.88
254.123	13070.01
254.193	13074.44
254.264	13215.78
254.334	13182.08
254.405	13141.98
254.475	13101.58
254.546	13109.63
254.616	13178.52
254.687	13209.03
254.757	13237.04
254.827	13227.21
254.898	13249.09
254.968	13257.53
255.039	13242.15
255.109	13279.65
255.18	13246.82
255.25	13171.91
255.321	13194.04
255.391	13155.96
255.461	13240.22
255.532	13163.81
255.602	13159.86
255.673	13108.28
255.743	13071.16
255.813	12999.72
255.884	13052.46
255.954	13100.81
256.024	13162.18
256.095	13163.87
256.165	13127.09
256.235	13145.98
256.306	13137.02
256.376	13186.14
256.446	13222.39
256.517	13253.05
256.587	13295.37
256.657	13317.26
256.728	13345.22
256.798	13356.55
256.868	13356.64
256.938	13329.45
257.009	13374
257.079	13403.21
257.149	13502.95
257.219	13437.24
257.29	13475.23
257.36	13418.78
257.43	13450.4
257.5	13389.47
257.571	13381.03
257.641	13421.33
257.711	13384.6
257.781	13419.16
257.852	13433.09
257.922	13370.23
257.992	13376.69
258.062	13369.32
258.132	13414.68
258.202	13416.46
258.273	13432.76
258.343	13499.38
258.413	13474.26
258.483	13475.28
258.553	13445.63
258.623	13418.78
258.693	13455.13
258.764	13521.6
258.834	13584.37
258.904	13607.17
258.974	13593.86
259.044	13604.95
259.114	13631.9
259.184	13664.53
259.254	13680.39
259.324	13632.91
259.394	13678.85
259.464	13753.38
259.535	13761.38
259.605	13752.32
259.675	13743.78
259.745	13781
259.815	13755.55
259.885	13769.19
259.955	13887.48
260.025	13877.89
260.095	13892.3
260.165	13923.1
260.235	13986.44
260.305	13979.26
260.375	13945.66
260.445	14033.73
260.515	14091.77
260.585	14134.53
260.655	14140.41
260.725	14170.54
260.795	14206.7
260.865	14279.24
260.934	14251.58
261.004	14282.04
261.074	14281.22
261.144	14340.8
261.214	14370.88
261.284	14376.14
261.354	14413.79
261.424	14370.7
261.494	14443.63
261.564	14447.73
261.634	14474
261.703	14403.24
261.773	14431.05
261.843	14457.23
261.913	14452.26
261.983	14399.48
262.053	14422.9
262.123	14415.29
262.192	14377.25
262.262	14418.85
262.332	14375.76
262.402	14404.88
262.472	14415.58
262.541	14356.19
262.611	14404.2
262.681	14388.73
262.751	14433.22
262.821	14441.56
262.89	14413.65
262.96	14437.17
263.03	14514.59
263.1	14528.13
263.169	14544.62
