Data from 20250701_reference_start_MAYP1162681_14-07-09-362.txt Node
Date: Tue Jul 01 14:07:09 BST 2025
User: adleo
Spectrometer: MAYP116268
Trigger mode: 0
Integration Time (sec): 4.000000E0
Scans to average: 1
Electric dark correction enabled: true
Nonlinearity correction enabled: true
Boxcar width: 10
XAxis mode: Wavelengths
Number of Pixels in Spectrum: 2068
>>>>>Begin Spectral Data<<<<<
179.565	4332.03
179.642	4553.28
179.718	4728.4
179.795	4884.84
179.871	5020.21
179.948	5098.71
180.024	5180.67
180.101	5275.7
180.177	5333.45
180.254	5426.93
180.33	5521.46
180.407	5838.58
180.483	6174.88
180.56	6518.19
180.636	6830.36
180.712	6793.69
180.789	6833.32
180.865	6878.4
180.942	6909.33
181.018	6950.55
181.095	6994.39
181.171	7009.52
181.248	7012.41
181.324	7070.04
181.4	7098.88
181.477	7134.68
181.553	7177.76
181.63	7259.42
181.706	7318.22
181.782	7351.02
181.859	7348.42
181.935	7361.5
182.011	7344.87
182.088	7405.64
182.164	7476.77
182.24	7529.97
182.317	7560.53
182.393	7553.9
182.469	7603.37
182.546	7654.33
182.622	7669.38
182.698	7657.69
182.775	7704.28
182.851	7762.51
182.927	7733.23
183.003	7713.57
183.08	7690.16
183.156	7728.96
183.232	7718.28
183.308	7669.86
183.385	7703.94
183.461	7769.68
183.537	7780.41
183.613	7831.91
183.69	7802.14
183.766	7754.51
183.842	7784.67
183.918	7805.92
183.995	7851.75
184.071	7863.63
184.147	7848.14
184.223	7809.5
184.299	7854.29
184.375	7813.42
184.452	7826.6
184.528	7961.76
184.604	8003.87
184.68	8053.35
184.756	8082.55
184.832	8103.58
184.908	8121.26
184.985	8111.41
185.061	8048.31
185.137	8073.9
185.213	8027.45
185.289	8026.34
185.365	8006.34
185.441	8004.04
185.517	8053.36
185.593	8041.38
185.669	8035.95
185.745	8070.83
185.822	8136.3
185.898	8103.1
185.974	8138.54
186.05	8113.62
186.126	8040.9
186.202	8012.77
186.278	7999.54
186.354	7958.03
186.43	7976.8
186.506	7975.93
186.582	7976.89
186.658	8006.55
186.734	7930.63
186.81	7944.58
186.886	7956.98
186.962	8000.69
187.038	7977.17
187.114	7945.74
187.19	7976
187.266	7937.82
187.341	7939.07
187.417	7909.78
187.493	7917.62
187.569	7932.63
187.645	7915.46
187.721	7868.08
187.797	7896.93
187.873	7910.25
187.949	7890.44
188.025	7864.89
188.101	7876.29
188.176	7899.85
188.252	7879.37
188.328	7912.58
188.404	7909.83
188.48	7889.79
188.556	7867.9
188.632	7869.97
188.707	7874.3
188.783	7864.82
188.859	7847.13
188.935	7804.13
189.011	7833.13
189.086	7807.79
189.162	7772.63
189.238	7763.3
189.314	7754.5
189.39	7736.66
189.465	7711.27
189.541	7776.63
189.617	7719.89
189.693	7700.76
189.768	7709.66
189.844	7800.93
189.92	7769.79
189.996	7804.71
190.071	7851.89
190.147	7850.4
190.223	7889.17
190.298	7861.7
190.374	7810.34
190.45	7858.51
190.526	7895.21
190.601	7876.89
190.677	7879.92
190.753	7988.54
190.828	8000.13
190.904	8061.32
190.98	8120.26
191.055	8158.45
191.131	8127.17
191.207	8209.8
191.282	8247.31
191.358	8212.25
191.433	8162.05
191.509	8210.59
191.585	8201.02
191.66	8201.84
191.736	8228.25
191.811	8189.47
191.887	8251.74
191.963	8346.09
192.038	8364.61
192.114	8366.29
192.189	8382.12
192.265	8370.29
192.34	8287.4
192.416	8288.02
192.491	8272.04
192.567	8283.74
192.642	8299.62
192.718	8302.94
192.793	8254.06
192.869	8239.63
192.944	8250.74
193.02	8279.66
193.095	8296.21
193.171	8319.88
193.246	8319.88
193.322	8307.66
193.397	8309.87
193.473	8256.4
193.548	8186.29
193.624	8210.83
193.699	8207.56
193.775	8269.56
193.85	8278.4
193.925	8312.86
194.001	8311.27
194.076	8284.28
194.152	8246.35
194.227	8219.21
194.302	8178.92
194.378	8197.1
194.453	8185.37
194.529	8229.53
194.604	8172.86
194.679	8149.96
194.755	8078.79
194.83	8129.67
194.905	8126.4
194.981	8163.54
195.056	8139.01
195.131	8163.21
195.207	8156.03
195.282	8115.63
195.357	8042.19
195.433	8098.62
195.508	8055.36
195.583	8082.78
195.659	8133.5
195.734	8154.86
195.809	8149.52
195.884	8188.57
195.96	8190.39
196.035	8255.24
196.11	8243.89
196.185	8290.07
196.261	8308.59
196.336	8427.33
196.411	8370.57
196.486	8394.1
196.561	8367.44
196.637	8399.04
196.712	8463.02
196.787	8472.89
196.862	8533.36
196.937	8571.46
197.013	8596.35
197.088	8636.43
197.163	8715.92
197.238	8784.45
197.313	8791.38
197.388	8842.01
197.464	8956.32
197.539	8996.74
197.614	8966.57
197.689	9013.26
197.764	9080.68
197.839	9156.59
197.914	9125.78
197.989	9212.92
198.065	9263.66
198.14	9454.15
198.215	9549.49
198.29	9586.63
198.365	9630.88
198.44	9673.4
198.515	9777.81
198.59	9836.29
198.665	9932.47
198.74	9963.98
198.815	9970.34
198.89	10049.85
198.965	10163.41
199.04	10151.51
199.115	10210.84
199.19	10373.98
199.265	10388.81
199.34	10426.25
199.415	10558.96
199.49	10653.18
199.565	10691.05
199.64	10778.54
199.715	10774.06
199.79	10804.9
199.865	10836.84
199.94	10839.4
200.015	10960.97
200.09	10983.29
200.165	11002.42
200.24	11030.22
200.315	11176.65
200.39	11229.18
200.464	11253.85
200.539	11260.99
200.614	11316.74
200.689	11411.39
200.764	11433.27
200.839	11498.8
200.914	11514.32
200.989	11468.77
201.063	11518.94
201.138	11455.01
201.213	11463.01
201.288	11390.24
201.363	11413.85
201.438	11413.23
201.512	11474.95
201.587	11405.4
201.662	11420.2
201.737	11476.78
201.812	11504.54
201.886	11389.58
201.961	11431.8
202.036	11384.97
202.111	11375.91
202.186	11274.45
202.26	11207.45
202.335	11132.56
202.41	11107.26
202.485	11048.09
202.559	10971.96
202.634	10873.71
202.709	10906.84
202.784	10830.66
202.858	10832.78
202.933	10767.83
203.008	10742.34
203.082	10667.18
203.157	10673.93
203.232	10517
203.306	10427.41
203.381	10309.46
203.456	10222.26
203.53	10137.1
203.605	10067.42
203.68	9981.17
203.754	9957.1
203.829	9898.23
203.904	9819.19
203.978	9778.73
204.053	9797.71
204.127	9756.92
204.202	9751.28
204.277	9688.63
204.351	9667.29
204.426	9638.72
204.5	9602.46
204.575	9473.96
204.65	9513.61
204.724	9478.14
204.799	9514.24
204.873	9504.08
204.948	9504.13
205.022	9464.65
205.097	9430.4
205.171	9486.44
205.246	9519.68
205.32	9513.95
205.395	9517.66
205.469	9492.3
205.544	9516.53
205.618	9455.89
205.693	9505.83
205.767	9465.96
205.842	9545.43
205.916	9528.05
205.991	9497.32
206.065	9520.68
206.14	9582.13
206.214	9568.69
206.289	9546.1
206.363	9593.87
206.438	9611.89
206.512	9639.34
206.586	9714.41
206.661	9749.34
206.735	9671.74
206.81	9680.7
206.884	9740.94
206.958	9700.06
207.033	9769.53
207.107	9800.27
207.181	9916.66
207.256	9896.09
207.33	9973.3
207.405	10020.43
207.479	10088.39
207.553	10115.12
207.628	10058.74
207.702	10110.99
207.776	10086.72
207.851	10098.04
207.925	10155.95
207.999	10136.93
208.073	10133.6
208.148	10144.59
208.222	10103.97
208.296	10228.02
208.371	10289.08
208.445	10333.55
208.519	10439.61
208.593	10482.44
208.668	10471.46
208.742	10486.78
208.816	10496.75
208.89	10544.41
208.965	10546.15
209.039	10583.64
209.113	10653.7
209.187	10735.13
209.261	10717.83
209.336	10798.01
209.41	10880.93
209.484	10888.16
209.558	10981.21
209.632	11031.37
209.707	11076.81
209.781	11160.03
209.855	11225.67
209.929	11289.74
210.003	11314.46
210.077	11316.24
210.151	11492.32
210.226	11631.19
210.3	11734.25
210.374	11818.77
210.448	11842.68
210.522	11886.44
210.596	11926.84
210.67	11968.96
210.744	12151.97
210.818	12280.93
210.892	12360.9
210.966	12346.44
211.041	12407.03
211.115	12393.29
211.189	12488.83
211.263	12555.59
211.337	12583.69
211.411	12631.6
211.485	12614.35
211.559	12661.87
211.633	12677.68
211.707	12568.16
211.781	12588.26
211.855	12456.71
211.929	12430.01
212.003	12354.88
212.077	12387.56
212.151	12434.42
212.225	12467.24
212.299	12425.69
212.373	12373.15
212.447	12356.04
212.52	12464.3
212.594	12469.27
212.668	12515.97
212.742	12457.07
212.816	12438.37
212.89	12416.72
212.964	12412.05
213.038	12426.99
213.112	12471.1
213.186	12517.47
213.26	12438.91
213.333	12266.89
213.407	12283.42
213.481	12292.87
213.555	12336.86
213.629	12288.99
213.703	12223.49
213.777	12207.05
213.85	12131.8
213.924	12258.53
213.998	12250.58
214.072	12213.75
214.146	12155.66
214.219	12133.78
214.293	12111.37
214.367	12097.63
214.441	12119.51
214.515	12071.35
214.588	11963.53
214.662	11823.32
214.736	11732.52
214.81	11746.01
214.883	11762.3
214.957	11705.87
215.031	11639.47
215.105	11532.86
215.178	11457.58
215.252	11415.41
215.326	11303.51
215.4	11204.73
215.473	11002.26
215.547	10907.65
215.621	10832.21
215.694	10823.2
215.768	10708.37
215.842	10638.75
215.915	10561.93
215.989	10438.42
216.063	10364.25
216.136	10337.41
216.21	10306.49
216.284	10318.29
216.357	10284.81
216.431	10238.8
216.504	10230.32
216.578	10294.89
216.652	10307.65
216.725	10282.74
216.799	10287.32
216.873	10271.13
216.946	10272.82
217.02	10224.42
217.093	10186.37
217.167	10070.76
217.24	9978.15
217.314	9946.42
217.387	9889.65
217.461	9837.44
217.535	9866.34
217.608	9791.74
217.682	9764.28
217.755	9773.96
217.829	9709.7
217.902	9686.29
217.976	9668.28
218.049	9615.49
218.123	9530.17
218.196	9525.25
218.27	9483.93
218.343	9401.46
218.417	9394.67
218.49	9370.11
218.563	9418.99
218.637	9426.07
218.71	9505.53
218.784	9533.71
218.857	9557.26
218.931	9581.13
219.004	9588.79
219.077	9601.8
219.151	9622.89
219.224	9607.38
219.298	9600.15
219.371	9649.24
219.444	9607.16
219.518	9615.15
219.591	9637.06
219.665	9746.54
219.738	9757.18
219.811	9731.9
219.885	9777.71
219.958	9803.77
220.031	9806.22
220.105	9825.64
220.178	9831.95
220.251	9800.97
220.325	9822.99
220.398	9847.12
220.471	9873.6
220.544	9916.43
220.618	9888.2
220.691	9918.2
220.764	9937.56
220.838	9967.43
220.911	9947.72
220.984	10044.87
221.057	10081.62
221.131	10110.86
221.204	10004.37
221.277	10081.17
221.35	10222.31
221.424	10212.05
221.497	10223.22
221.57	10247.88
221.643	10286.67
221.716	10337.84
221.79	10344.34
221.863	10356.63
221.936	10367.18
222.009	10377.1
222.082	10405.63
222.155	10413.58
222.229	10485.42
222.302	10509.41
222.375	10519
222.448	10567.18
222.521	10568.77
222.594	10562.51
222.667	10523.21
222.74	10588.01
222.814	10583.72
222.887	10566.61
222.96	10627.27
223.033	10678.79
223.106	10708.22
223.179	10732.7
223.252	10740.22
223.325	10775.34
223.398	10792.74
223.471	10818.27
223.544	10845.93
223.617	10858.84
223.69	10887.37
223.763	10844.23
223.837	10874.45
223.91	10905.77
223.983	10844.87
224.056	10804.35
224.129	10833.79
224.202	10889.91
224.275	10868.51
224.348	10835.27
224.42	10794.45
224.493	10726.46
224.566	10696.63
224.639	10719.37
224.712	10692.24
224.785	10680.43
224.858	10666.08
224.931	10643.38
225.004	10603
225.077	10595.49
225.15	10500.73
225.223	10497.26
225.296	10584.15
225.369	10522.97
225.442	10476.95
225.514	10499.16
225.587	10525.08
225.66	10531.73
225.733	10533.07
225.806	10545.75
225.879	10536.79
225.952	10502.2
226.025	10557.75
226.097	10617.71
226.17	10608.6
226.243	10533.06
226.316	10529.11
226.389	10540.43
226.461	10560.19
226.534	10587.65
226.607	10583.89
226.68	10668.77
226.753	10657.02
226.825	10569.49
226.898	10631.02
226.971	10643.69
227.044	10665.13
227.117	10676.07
227.189	10697.32
227.262	10743
227.335	10758.18
227.407	10758.71
227.48	10797.16
227.553	10814.27
227.626	10787.85
227.698	10791.27
227.771	10844.36
227.844	10821.71
227.916	10838.77
227.989	10803.4
228.062	10798
228.134	10903.36
228.207	10907.89
228.28	10913.57
228.352	10931.4
228.425	10946.34
228.498	10999.21
228.57	10982.1
228.643	11052.85
228.716	11058.25
228.788	11046.39
228.861	11056.56
228.934	11124.31
229.006	11136.02
229.079	11141.95
229.151	11139.73
229.224	11108.03
229.296	11138.58
229.369	11256.48
229.442	11309.06
229.514	11293.4
229.587	11348.63
229.659	11253.97
229.732	11273.59
229.804	11317.54
229.877	11406.03
229.949	11435.87
230.022	11491.25
230.094	11492.55
230.167	11475.01
230.239	11421.81
230.312	11412.26
230.384	11483.7
230.457	11477.72
230.529	11482.3
230.602	11475.5
230.674	11480.03
230.747	11528.31
230.819	11556.02
230.892	11419.73
230.964	11422.14
231.037	11453.7
231.109	11437.02
231.181	11483.48
231.254	11445.12
231.326	11425.5
231.399	11396.72
231.471	11363.85
231.544	11276.03
231.616	11323.98
231.688	11329.43
231.761	11313.96
231.833	11294.11
231.905	11195.73
231.978	11193.57
232.05	11175.21
232.122	11184.22
232.195	11147.83
232.267	11182.53
232.339	11153.04
232.412	11228.79
232.484	11201.03
232.556	11168.65
232.629	11243.65
232.701	11260.95
232.773	11276.71
232.846	11263.07
232.918	11263.03
232.99	11281.24
233.062	11327.37
233.135	11341.1
233.207	11296.86
233.279	11350.34
233.351	11392.65
233.424	11400.75
233.496	11373.71
233.568	11475.46
233.64	11440.18
233.713	11466.69
233.785	11469.29
233.857	11488.13
233.929	11431.56
234.001	11504.1
234.074	11572.48
234.146	11497.24
234.218	11497.67
234.29	11493.38
234.362	11480.47
234.434	11435.5
234.507	11404.6
234.579	11352.6
234.651	11328.79
234.723	11371.11
234.795	11391.93
234.867	11385.81
234.939	11448.71
235.012	11468.03
235.084	11469.62
235.156	11508.27
235.228	11486.83
235.3	11468.46
235.372	11483.5
235.444	11547.07
235.516	11457.46
235.588	11467.29
235.66	11477.7
235.732	11442.76
235.804	11658.37
235.876	11712.73
235.948	11784.21
236.02	11799.73
236.092	11816.21
236.164	11834.62
236.236	11833.66
236.308	11839.06
236.38	11866.77
236.452	11848.5
236.524	11880.55
236.596	11952.04
236.668	11990.99
236.74	12016.73
236.812	12047.38
236.884	12082.04
236.956	12098.67
237.028	12098.33
237.1	12087.82
237.172	12170.4
237.244	12256.39
237.316	12127.39
237.388	12107.39
237.46	12074.61
237.532	12146.19
237.604	12132.55
237.675	12219.85
237.747	12269.11
237.819	12249.3
237.891	12255.38
237.963	12240.24
238.035	12230.26
238.107	12101.75
238.178	12170.16
238.25	12183.46
238.322	12283.58
238.394	12235.86
238.466	12241.07
238.538	12289.85
238.609	12339.25
238.681	12278.71
238.753	12256.92
238.825	12277.07
238.897	12313.79
238.968	12412.95
239.04	12389.86
239.112	12517.65
239.184	12469.63
239.255	12460.47
239.327	12503.42
239.399	12531.47
239.471	12588.06
239.542	12627.15
239.614	12713.15
239.686	12620.88
239.758	12678.58
239.829	12639.49
239.901	12717.39
239.973	12734.35
240.044	12775.23
240.116	12785.21
240.188	12810.03
240.259	12832.55
240.331	12825.36
240.403	12867.49
240.474	12814.61
240.546	12802.71
240.618	12732.33
240.689	12731.51
240.761	12760.33
240.833	12835.2
240.904	12834.96
240.976	12835.2
241.048	12856.5
241.119	12888.37
241.191	12938.84
241.262	13019.34
241.334	13028.12
241.405	13035.01
241.477	13044.75
241.549	13050.63
241.62	13086.93
241.692	13135.04
241.763	13199.3
241.835	13223.3
241.906	13242.59
241.978	13215.83
242.049	13297.59
242.121	13371.39
242.192	13460.19
242.264	13421.96
242.335	13372.35
242.407	13425.19
242.478	13429.04
242.55	13447.94
242.621	13440.9
242.693	13440.52
242.764	13432.08
242.836	13434.2
242.907	13466.31
242.979	13494.75
243.05	13511.77
243.122	13533.61
243.193	13534.38
243.264	13458.07
243.336	13462.02
243.407	13506.9
243.479	13592.85
243.55	13612.33
243.622	13633.34
243.693	13624.04
243.764	13701.46
243.836	13674.46
243.907	13659.28
243.978	13665.79
244.05	13704.45
244.121	13655.86
244.192	13707.34
244.264	13644.58
244.335	13656.19
244.407	13600.71
244.478	13620.57
244.549	13622.6
244.62	13577.81
244.692	13579.11
244.763	13629.39
244.834	13615.12
244.906	13589.67
244.977	13611.02
245.048	13668.87
245.119	13648.38
245.191	13623.89
245.262	13557.08
245.333	13640.04
245.405	13657.73
245.476	13699.33
245.547	13714.33
245.618	13769.67
245.689	13789.48
245.761	13836.92
245.832	13863.53
245.903	13921.04
245.974	13958.49
246.045	13973.19
246.117	14069.94
246.188	14056.45
246.259	14039.52
246.33	14064.69
246.401	14084.55
246.473	14045.31
246.544	14034.13
246.615	14102.63
246.686	14105.66
246.757	14193.45
246.828	14176.62
246.899	14265.56
246.97	14232.59
247.042	14226.85
247.113	14277.22
247.184	14374.06
247.255	14373.19
247.326	14389.15
247.397	14401.01
247.468	14414.31
247.539	14432.29
247.61	14382.21
247.681	14435.62
247.752	14504.55
247.823	14479.39
247.894	14497.52
247.965	14477.8
248.037	14454.9
248.108	14394.93
248.179	14411.42
248.25	14406.94
248.321	14437.07
248.392	14389.73
248.463	14479.83
248.534	14479.01
248.605	14500.27
248.675	14467.88
248.746	14486.92
248.817	14503.69
248.888	14524.37
248.959	14463.39
249.03	14491.16
249.101	14495.74
249.172	14481.61
249.243	14397.25
249.314	14469.08
249.385	14473.71
249.456	14511.79
249.527	14509.38
249.598	14535.56
249.669	14539.03
249.739	14555.61
249.81	14572.05
249.881	14514.68
249.952	14507.94
250.023	14507.02
250.094	14458.86
250.165	14430.23
250.235	14428.5
250.306	14434.72
250.377	14398.61
250.448	14419.92
250.519	14350.36
250.59	14421.51
250.66	14411.57
250.731	14493.72
250.802	14495.12
250.873	14515.84
250.944	14539.99
251.014	14535.46
251.085	14635.91
251.156	14664.6
251.227	14715.3
251.297	14773.39
251.368	14843.86
251.439	14896.5
251.51	14952.71
251.58	14931.98
251.651	14928.07
251.722	14985.48
251.792	14930.77
251.863	14933.61
251.934	15011.75
252.005	15148.12
252.075	15151.73
252.146	15217.05
252.217	15274.65
252.287	15325.07
252.358	15332.25
252.429	15403.01
252.499	15397.81
252.57	15404.17
252.641	15465.67
252.711	15475.51
252.782	15426.05
252.852	15510.5
252.923	15506.21
252.994	15518.98
253.064	15577.74
253.135	15554.17
253.205	15540.24
253.276	15637.08
253.347	15714.78
253.417	15686.87
253.488	15664.99
253.558	15656.46
253.629	15651.01
253.699	15661.33
253.77	15694.01
253.841	15689.33
253.911	15708.99
253.982	15730.49
254.052	15771.75
254.123	15773.29
254.193	15779.94
254.264	15945.55
254.334	15901.78
254.405	15867.46
254.475	15837.92
254.546	15842.3
254.616	15915.57
254.687	15942.27
254.757	15963
254.827	15961.6
254.898	15991.82
254.968	15994.62
255.039	15983.14
255.109	16031.39
255.18	16007.73
255.25	15924.58
255.321	15966.13
255.391	15923.19
255.461	16020.5
255.532	15928.3
255.602	15918.76
255.673	15856.29
255.743	15813.35
255.813	15739.6
255.884	15799.27
255.954	15832.39
256.024	15907.48
256.095	15904.78
256.165	15871.62
256.235	15892.1
256.306	15874.51
256.376	15930.51
256.446	15972.98
256.517	16006.38
256.587	16051.78
256.657	16068.94
256.728	16101.72
256.798	16115.02
256.868	16116.08
256.938	16084.32
257.009	16138.4
257.079	16175.61
257.149	16282.08
257.219	16208.58
257.29	16260.59
257.36	16191.81
257.43	16242.8
257.5	16172.53
257.571	16169.78
257.641	16209.11
257.711	16176.72
257.781	16222.32
257.852	16242.71
257.922	16178.51
257.992	16179.32
258.062	16169.01
258.132	16213.11
258.202	16226.17
258.273	16236.1
258.343	16314.76
258.413	16306.27
258.483	16305.31
258.553	16275.38
258.623	16249.4
258.693	16292.73
258.764	16358.91
258.834	16440.37
258.904	16460.51
258.974	16455.55
259.044	16465.96
259.114	16498.01
259.184	16534.93
259.254	16546.88
259.324	16485.48
259.394	16537.82
259.464	16635.99
259.535	16658.74
259.605	16654.16
259.675	16644.09
259.745	16691.51
259.815	16667.8
259.885	16668.86
259.955	16803.85
260.025	16792.9
260.095	16819.56
260.165	16847.27
260.235	16925.24
260.305	16913.63
260.375	16875.51
260.445	16975.8
260.515	17054.46
260.585	17118.22
260.655	17130.75
260.725	17170.07
260.795	17216.49
260.865	17296.82
260.934	17263.72
261.004	17291.33
261.074	17302.99
261.144	17366.95
261.214	17409.36
261.284	17408.64
261.354	17452.78
261.424	17404.21
261.494	17488.94
261.564	17503.35
261.634	17532.99
261.703	17456.26
