Data from 20250701_urea_2M_exp3_MAYP1162681_07-39-52-287.txt Node
Date: Wed Jul 02 07:39:52 BST 2025
User: adleo
Spectrometer: MAYP116268
Trigger mode: 0
Integration Time (sec): 4.000000E0
Scans to average: 1
Electric dark correction enabled: true
Nonlinearity correction enabled: true
Boxcar width: 10
XAxis mode: Wavelengths
Number of Pixels in Spectrum: 2068
>>>>>Begin Spectral Data<<<<<
179.565	3772.37
179.642	3974.67
179.718	4125.22
179.795	4255.42
179.871	4370.21
179.948	4430.75
180.024	4499.62
180.101	4576.95
180.177	4624.57
180.254	4703.39
180.33	4778.02
180.407	5050.54
180.483	5341.18
180.56	5638.73
180.636	5911.88
180.712	5869.73
180.789	5903.51
180.865	5944.45
180.942	5973.13
181.018	6008.97
181.095	6049.39
181.171	6068.78
181.248	6065.8
181.324	6117.99
181.4	6147.85
181.477	6182.26
181.553	6229.46
181.63	6307.99
181.706	6364.55
181.782	6394.43
181.859	6389.44
181.935	6409.08
182.011	6395.35
182.088	6455.75
182.164	6519.31
182.24	6572.01
182.317	6604.5
182.393	6597.59
182.469	6646.18
182.546	6694.06
182.622	6709.71
182.698	6692.56
182.775	6731.9
182.851	6780.64
182.927	6754.94
183.003	6740.16
183.08	6721
183.156	6753.51
183.232	6738.95
183.308	6697.65
183.385	6729.67
183.461	6793.65
183.537	6797.25
183.613	6840.82
183.69	6810.5
183.766	6775.08
183.842	6791.8
183.918	6809.53
183.995	6857.84
184.071	6866.88
184.147	6850.25
184.223	6813.53
184.299	6858.55
184.375	6816.68
184.452	6840.04
184.528	6967.61
184.604	7004.64
184.68	7049.16
184.756	7072.76
184.832	7085.11
184.908	7103.11
184.985	7100.85
185.061	7046.48
185.137	7080.26
185.213	7041.21
185.289	7041.49
185.365	7017.48
185.441	7014.5
185.517	7061.33
185.593	7050.13
185.669	7048.11
185.745	7082.42
185.822	7141.05
185.898	7108.18
185.974	7147.61
186.05	7121.99
186.126	7043.95
186.202	7016.14
186.278	7000.28
186.354	6966.88
186.43	6990.68
186.506	6993.08
186.582	6986.31
186.658	7011.18
186.734	6941.11
186.81	6949.22
186.886	6963.1
186.962	7004.6
187.038	6988.51
187.114	6958.46
187.19	6980.47
187.266	6945.89
187.341	6940.5
187.417	6914.37
187.493	6923.54
187.569	6932.29
187.645	6909.28
187.721	6873.91
187.797	6904.27
187.873	6916.57
187.949	6897.74
188.025	6875.53
188.101	6879.76
188.176	6904.55
188.252	6887.64
188.328	6914.28
188.404	6918.51
188.48	6895.79
188.556	6873.79
188.632	6874.56
188.707	6879.99
188.783	6873.02
188.859	6854.3
188.935	6819.61
189.011	6844.02
189.086	6821.63
189.162	6792.81
189.238	6781.57
189.314	6772.21
189.39	6748.48
189.465	6729.69
189.541	6788.89
189.617	6733.71
189.693	6713.06
189.768	6718.25
189.844	6802.7
189.92	6777.89
189.996	6804.69
190.071	6844.56
190.147	6838.7
190.223	6873.78
190.298	6845.57
190.374	6795.19
190.45	6839.94
190.526	6869.48
190.601	6854.25
190.677	6848.97
190.753	6944.89
190.828	6961.55
190.904	7018.45
190.98	7076.26
191.055	7111.92
191.131	7080.29
191.207	7158.21
191.282	7196.82
191.358	7167.61
191.433	7116.79
191.509	7161.3
191.585	7150.05
191.66	7153.42
191.736	7182
191.811	7146.35
191.887	7204.51
191.963	7290.14
192.038	7304.51
192.114	7304.89
192.189	7314.02
192.265	7307.54
192.34	7229.01
192.416	7226.46
192.491	7206.8
192.567	7214.88
192.642	7227.09
192.718	7229.01
192.793	7185.86
192.869	7168.51
192.944	7176.01
193.02	7204.51
193.095	7217.73
193.171	7235.8
193.246	7231.42
193.322	7221.81
193.397	7224.31
193.473	7170.8
193.548	7107.93
193.624	7129.56
193.699	7128.6
193.775	7185.38
193.85	7191.58
193.925	7220.22
194.001	7220.37
194.076	7197.16
194.152	7158.89
194.227	7129.13
194.302	7097.72
194.378	7107.38
194.453	7094.12
194.529	7135.12
194.604	7083.07
194.679	7060.82
194.755	7000.5
194.83	7046.61
194.905	7042.19
194.981	7068.14
195.056	7047.35
195.131	7065.79
195.207	7060.12
195.282	7022.12
195.357	6955.69
195.433	7006.08
195.508	6970.66
195.583	6995.36
195.659	7041.79
195.734	7064
195.809	7052.75
195.884	7082.67
195.96	7087.53
196.035	7139.61
196.11	7127.2
196.185	7168.86
196.261	7182.89
196.336	7288.13
196.411	7239.18
196.486	7256.92
196.561	7238.65
196.637	7271.94
196.712	7328.35
196.787	7334.26
196.862	7388.22
196.937	7428.39
197.013	7449.02
197.088	7481.85
197.163	7555.1
197.238	7618.67
197.313	7612.71
197.388	7662.56
197.464	7766.07
197.539	7801.84
197.614	7782.27
197.689	7822.91
197.764	7874.28
197.839	7944.11
197.914	7922.17
197.989	7994.65
198.065	8042.02
198.14	8217.74
198.215	8307.41
198.29	8346.78
198.365	8389.07
198.44	8426.15
198.515	8518.16
198.59	8572.69
198.665	8661.42
198.74	8684.29
198.815	8685.11
198.89	8776.48
198.965	8877.67
199.04	8864.77
199.115	8917.99
199.19	9064.91
199.265	9070.98
199.34	9110.79
199.415	9223.34
199.49	9295.34
199.565	9331.35
199.64	9414.21
199.715	9401.49
199.79	9420.27
199.865	9444.44
199.94	9444.54
200.015	9558.67
200.09	9578.03
200.165	9599.46
200.24	9622.67
200.315	9760.81
200.39	9814.9
200.464	9827.61
200.539	9834.84
200.614	9882.56
200.689	9967.86
200.764	9986.02
200.839	10050.49
200.914	10060.17
200.989	10022.01
201.063	10076.34
201.138	10014.39
201.213	10010.73
201.288	9940.37
201.363	9962.43
201.438	9965.27
201.512	10018.91
201.587	9951.37
201.662	9957.2
201.737	9998.05
201.812	10021.31
201.886	9901.91
201.961	9928.12
202.036	9888.69
202.111	9877.65
202.186	9780.95
202.26	9719.63
202.335	9649.01
202.41	9626.91
202.485	9575.92
202.559	9505.62
202.634	9408.21
202.709	9446.7
202.784	9379.78
202.858	9379.05
202.933	9311.93
203.008	9283.76
203.082	9217.33
203.157	9215.35
203.232	9071.57
203.306	8993.16
203.381	8886.13
203.456	8810.22
203.53	8729.92
203.605	8658.44
203.68	8578.13
203.754	8554.19
203.829	8501.91
203.904	8428.63
203.978	8390.85
204.053	8398.88
204.127	8364.87
204.202	8359.43
204.277	8288.14
204.351	8267.06
204.426	8246.9
204.5	8213.51
204.575	8095.02
204.65	8125.91
204.724	8101.36
204.799	8125.49
204.873	8115.43
204.948	8106.34
205.022	8069.41
205.097	8042.07
205.171	8086.75
205.246	8117.26
205.32	8115.05
205.395	8112.6
205.469	8083.95
205.544	8098.1
205.618	8038.88
205.693	8076.7
205.767	8034.76
205.842	8120.45
205.916	8101.64
205.991	8066.67
206.065	8094.28
206.14	8146.86
206.214	8132.99
206.289	8109.17
206.363	8155.54
206.438	8164.21
206.512	8187.25
206.586	8254.63
206.661	8278.41
206.735	8209.9
206.81	8212.65
206.884	8259.78
206.958	8214.71
207.033	8272.36
207.107	8297.68
207.181	8408.08
207.256	8381.76
207.33	8447.67
207.405	8484.51
207.479	8546.49
207.553	8570.73
207.628	8508.36
207.702	8548.67
207.776	8527.31
207.851	8537.12
207.925	8588.2
207.999	8578.29
208.073	8573.72
208.148	8579.3
208.222	8542.48
208.296	8650.12
208.371	8699.58
208.445	8743.67
208.519	8842.5
208.593	8885.86
208.668	8876.76
208.742	8881.72
208.816	8889.18
208.89	8931.84
208.965	8920.52
209.039	8950.91
209.113	9009.92
209.187	9087.17
209.261	9074.37
209.336	9138.49
209.41	9205.51
209.484	9207
209.558	9277.68
209.632	9322.54
209.707	9367.56
209.781	9441.51
209.855	9491.5
209.929	9551.64
210.003	9568.97
210.077	9559.92
210.151	9722.25
210.226	9831.12
210.3	9920.65
210.374	10003.75
210.448	10023.31
210.522	10066.14
210.596	10098.08
210.67	10131.75
210.744	10289.18
210.818	10400.71
210.892	10474.47
210.966	10461.61
211.041	10508.34
211.115	10499.86
211.189	10580.98
211.263	10630.41
211.337	10642.84
211.411	10692.9
211.485	10672.09
211.559	10710.86
211.633	10720.83
211.707	10606.23
211.781	10636.26
211.855	10510.46
211.929	10481.76
212.003	10415.2
212.077	10442
212.151	10479.82
212.225	10503.1
212.299	10460.68
212.373	10415.54
212.447	10394.34
212.52	10483.81
212.594	10493.98
212.668	10524.43
212.742	10474.61
212.816	10451.38
212.89	10434.47
212.964	10419.58
213.038	10421.9
213.112	10466.95
213.186	10515.12
213.26	10441.74
213.333	10274.73
213.407	10295.29
213.481	10291.92
213.555	10319.03
213.629	10270.98
213.703	10204.93
213.777	10192.64
213.85	10119.75
213.924	10222.62
213.998	10214.38
214.072	10180.46
214.146	10126.79
214.219	10105.78
214.293	10082.13
214.367	10077.03
214.441	10100.68
214.515	10052.16
214.588	9965.84
214.662	9823.28
214.736	9740.35
214.81	9756.42
214.883	9779.38
214.957	9725.08
215.031	9669.24
215.105	9580.76
215.178	9513.72
215.252	9473.71
215.326	9372.73
215.4	9283.5
215.473	9103.42
215.547	9014.66
215.621	8944.96
215.694	8929.79
215.768	8837.46
215.842	8767.67
215.915	8691.06
215.989	8579.94
216.063	8521.58
216.136	8494.48
216.21	8474.71
216.284	8483.86
216.357	8455.75
216.431	8411.86
216.504	8409.89
216.578	8463.61
216.652	8475.82
216.725	8453.15
216.799	8460.47
216.873	8442
216.946	8452.38
217.02	8411.76
217.093	8377.74
217.167	8280.75
217.24	8198.84
217.314	8160.95
217.387	8115.13
217.461	8072.32
217.535	8090.31
217.608	8024.42
217.682	7993.48
217.755	8003.63
217.829	7941.62
217.902	7920.98
217.976	7896.89
218.049	7851.48
218.123	7773.34
218.196	7771.7
218.27	7734.47
218.343	7657.64
218.417	7652.54
218.49	7628.21
218.563	7668.55
218.637	7676.87
218.71	7747.24
218.784	7776.87
218.857	7805.77
218.931	7826.19
219.004	7837.69
219.077	7859.3
219.151	7880.11
219.224	7874.87
219.298	7869.19
219.371	7916.14
219.444	7874.56
219.518	7884.37
219.591	7898.65
219.665	8009.5
219.738	8020.71
219.811	8004.36
219.885	8055.69
219.958	8096.53
220.031	8100.33
220.105	8125.59
220.178	8131.65
220.251	8101.39
220.325	8124.05
220.398	8147.77
220.471	8173.21
220.544	8202.12
220.618	8172.38
220.691	8200.62
220.764	8216.49
220.838	8246.18
220.911	8235.16
220.984	8325.62
221.057	8359.78
221.131	8384.7
221.204	8285.24
221.277	8359.75
221.35	8486.21
221.424	8480.05
221.497	8484.62
221.57	8507.56
221.643	8539.67
221.716	8587.7
221.79	8594
221.863	8605.85
221.936	8614.8
222.009	8626.1
222.082	8663.84
222.155	8676.06
222.229	8736.96
222.302	8770.69
222.375	8777.09
222.448	8818.44
222.521	8823.11
222.594	8825.76
222.667	8795.65
222.74	8853.44
222.814	8841.4
222.887	8823.49
222.96	8878.32
223.033	8921.17
223.106	8951.1
223.179	8983.37
223.252	8994.88
223.325	9027.41
223.398	9042.67
223.471	9074.68
223.544	9099.9
223.617	9106.93
223.69	9127.91
223.763	9091.13
223.837	9112.36
223.91	9144.14
223.983	9089.51
224.056	9061.4
224.129	9083.93
224.202	9143.2
224.275	9124.52
224.348	9101.46
224.42	9063.48
224.493	9002.49
224.566	8976.15
224.639	8993.52
224.712	8962.8
224.785	8952.59
224.858	8941.61
224.931	8924.47
225.004	8879.08
225.077	8871.82
225.15	8781.83
225.223	8779.62
225.296	8859.18
225.369	8799.55
225.442	8761.52
225.514	8783.46
225.587	8794
225.66	8801.94
225.733	8798.33
225.806	8812.48
225.879	8794.34
225.952	8768.16
226.025	8813.55
226.097	8863.49
226.17	8856.61
226.243	8791.69
226.316	8778.83
226.389	8786.92
226.461	8803.1
226.534	8826.29
226.607	8817.73
226.68	8901.93
226.753	8898.95
226.825	8821.51
226.898	8881.04
226.971	8888.26
227.044	8907.99
227.117	8918
227.189	8936.5
227.262	8975.64
227.335	8992.4
227.407	8994.03
227.48	9022.71
227.553	9037.54
227.626	9016.93
227.698	9023.14
227.771	9061.82
227.844	9046.9
227.916	9064.33
227.989	9025.57
228.062	9020.38
228.134	9107
228.207	9109.55
228.28	9108.4
228.352	9122.65
228.425	9130.83
228.498	9178.6
228.57	9154.2
228.643	9215.69
228.716	9213.14
228.788	9200.33
228.861	9199.9
228.934	9256.9
229.006	9267.29
229.079	9262.96
229.151	9253.42
229.224	9214.44
229.296	9238.22
229.369	9345.97
229.442	9391.29
229.514	9376.42
229.587	9424.42
229.659	9356.42
229.732	9370.25
229.804	9411.7
229.877	9489.35
229.949	9521.33
230.022	9568.02
230.094	9568.93
230.167	9544.85
230.239	9507.39
230.312	9501.71
230.384	9571.94
230.457	9577.1
230.529	9590.43
230.602	9598.38
230.674	9609.41
230.747	9658.36
230.819	9691.88
230.892	9568.44
230.964	9573.26
231.037	9605.26
231.109	9591.59
231.181	9629.53
231.254	9589.61
231.326	9575.26
231.399	9549.19
231.471	9520.63
231.544	9442.45
231.616	9488.57
231.688	9506.49
231.761	9494.26
231.833	9474.81
231.905	9387.24
231.978	9380.45
232.05	9356.72
232.122	9357.88
232.195	9331.68
232.267	9368.09
232.339	9344.63
232.412	9409.38
232.484	9378.6
232.556	9352.04
232.629	9421.26
232.701	9437.83
232.773	9454.58
232.846	9436.87
232.918	9445.06
232.99	9465.38
233.062	9504.34
233.135	9527.27
233.207	9488.55
233.279	9531.44
233.351	9569.52
233.424	9567.65
233.496	9547.08
233.568	9637.48
233.64	9603.92
233.713	9627.13
233.785	9618.56
233.857	9630.65
233.929	9580.29
234.001	9652.84
234.074	9721.74
234.146	9644.76
234.218	9641.34
234.29	9642.25
234.362	9629.64
234.434	9580.08
234.507	9542.85
234.579	9489.5
234.651	9462.72
234.723	9502.45
234.795	9522.44
234.867	9510.88
234.939	9573.63
235.012	9591.26
235.084	9595.35
235.156	9634.35
235.228	9611.62
235.3	9601.27
235.372	9620.01
235.444	9678.46
235.516	9595.74
235.588	9600.08
235.66	9624.01
235.732	9597.38
235.804	9796.98
235.876	9849.12
235.948	9917.96
236.02	9933.13
236.092	9955.18
236.164	9969.34
236.236	9962.4
236.308	9960.33
236.38	9992.02
236.452	9977.47
236.524	9997.36
236.596	10063.97
236.668	10094.66
236.74	10118.25
236.812	10149.08
236.884	10176.16
236.956	10193.98
237.028	10191.62
237.1	10175.68
237.172	10245.69
237.244	10328.02
237.316	10207.18
237.388	10190.37
237.46	10160.88
237.532	10221.53
237.604	10212.14
237.675	10290.05
237.747	10339
237.819	10329.51
237.891	10334.52
237.963	10324.89
238.035	10323.15
238.107	10202.88
238.178	10267.31
238.25	10270.59
238.322	10357.86
238.394	10310.84
238.466	10308
238.538	10351.3
238.609	10397.45
238.681	10344.45
238.753	10319.73
238.825	10340.74
238.897	10369.64
238.968	10453.88
239.04	10438.8
239.112	10557.07
239.184	10514.04
239.255	10506.76
239.327	10544.33
239.399	10570.83
239.471	10620.7
239.542	10663.19
239.614	10740.23
239.686	10659.51
239.758	10717.09
239.829	10681.95
239.901	10750.8
239.973	10765.64
240.044	10798.55
240.116	10813.68
240.188	10829.86
240.259	10848.99
240.331	10831.93
240.403	10871.49
240.474	10824.93
240.546	10816.16
240.618	10753.37
240.689	10753.9
240.761	10776.75
240.833	10841.75
240.904	10843.92
240.976	10837.18
241.048	10846.52
241.119	10881.52
241.191	10933.41
241.262	11005.37
241.334	11008.12
241.405	11016.46
241.477	11024.89
241.549	11035.06
241.62	11060.45
241.692	11106.14
241.763	11164.55
241.835	11196.79
241.906	11213.42
241.978	11187.35
242.049	11259.68
242.121	11321.17
242.192	11397.07
242.264	11360.5
242.335	11315.25
242.407	11354.19
242.478	11361.41
242.55	11384.84
242.621	11372.69
242.693	11366.33
242.764	11353.12
242.836	11358.9
242.907	11391.39
242.979	11425.51
243.05	11449.08
243.122	11472.79
243.193	11468.98
243.264	11398.09
243.336	11396.93
243.407	11435.59
243.479	11520.12
243.55	11530.19
243.622	11544.89
243.693	11531.97
243.764	11608.75
243.836	11581.43
243.907	11572.99
243.978	11583.11
244.05	11608.76
244.121	11560.85
244.192	11604.08
244.264	11550.2
244.335	11567.02
244.407	11517.62
244.478	11533.33
244.549	11515.31
244.62	11473.86
244.692	11475.88
244.763	11521.62
244.834	11514.82
244.906	11496.89
244.977	11512.89
245.048	11566.69
245.119	11542.45
245.191	11521.48
245.262	11456.46
245.333	11539.25
245.405	11565.09
245.476	11593.52
245.547	11607.21
245.618	11663.94
245.689	11674.64
245.761	11711.85
245.832	11714.79
245.903	11758.07
245.974	11780.29
246.045	11798.99
246.117	11876.3
246.188	11861.12
246.259	11841.94
246.33	11857.36
246.401	11870.81
246.473	11837.6
246.544	11818.41
246.615	11877.17
246.686	11880.73
246.757	11953.75
246.828	11929.84
246.899	11993.76
246.97	11963.21
247.042	11960.89
247.113	12003.99
247.184	12095.19
247.255	12098.86
247.326	12125.9
247.397	12135.3
247.468	12152.7
247.539	12174.34
247.61	12134.19
247.681	12175.2
247.752	12236.66
247.823	12210.58
247.894	12222.54
247.965	12193.86
248.037	12188.32
248.108	12136.6
248.179	12151.63
248.25	12152.79
248.321	12183.45
248.392	12139.87
248.463	12224.22
248.534	12220.02
248.605	12239.64
248.675	12209.32
248.746	12226.19
248.817	12236.85
248.888	12259.31
248.959	12202
249.03	12222.87
249.101	12241.04
249.172	12232.17
249.243	12156.5
249.314	12224.13
249.385	12227.79
249.456	12257.14
249.527	12248.9
249.598	12275.46
249.669	12271.07
249.739	12279.12
249.81	12298.31
249.881	12254.68
249.952	12249.24
250.023	12249.57
250.094	12191.58
250.165	12164.11
250.235	12158.85
250.306	12170.86
250.377	12137.16
250.448	12165.65
250.519	12107.13
250.59	12152.3
250.66	12156.25
250.731	12227.15
250.802	12220.16
250.873	12242.77
250.944	12266.49
251.014	12260.41
251.085	12349.11
251.156	12376.29
251.227	12428.84
251.297	12482.73
251.368	12537.11
251.439	12576.92
251.51	12629.66
251.58	12620.89
251.651	12614.81
251.722	12675.02
251.792	12629.13
251.863	12635.3
251.934	12697.05
252.005	12808.69
252.075	12816.36
252.146	12861.18
252.217	12909.29
252.287	12956.78
252.358	12958.61
252.429	13033.71
252.499	13025.18
252.57	13042.63
252.641	13101.97
252.711	13104.58
252.782	13061.87
252.852	13130.66
252.923	13127.62
252.994	13138.18
253.064	13188.65
253.135	13171.82
253.205	13146.51
253.276	13218.34
253.347	13285.1
253.417	13262.45
253.488	13246.1
253.558	13232.51
253.629	13228.41
253.699	13240.95
253.77	13271.65
253.841	13277.82
253.911	13284.96
253.982	13305.97
254.052	13328.29
254.123	13327.47
254.193	13333.45
254.264	13470.4
254.334	13440.18
254.405	13409.23
254.475	13380.16
254.546	13385.66
254.616	13446.97
254.687	13482.31
254.757	13508.05
254.827	13506.56
254.898	13530.85
254.968	13530.66
255.039	13517.74
255.109	13561.46
255.18	13531.24
255.25	13462.88
255.321	13493.16
255.391	13454.54
255.461	13536.97
255.532	13451.65
255.602	13444.42
255.673	13388.45
255.743	13348.44
255.813	13279.46
255.884	13330.85
255.954	13365.9
256.024	13443.17
256.095	13446.69
256.165	13402.48
256.235	13418.49
256.306	13400.89
256.376	13450.16
256.446	13491.62
256.517	13529.22
256.587	13575.79
256.657	13600.27
256.728	13623.99
256.798	13634.69
256.868	13633.25
256.938	13606.35
257.009	13656.68
257.079	13694.18
257.149	13799.56
257.219	13736.46
257.29	13782.2
257.36	13722.72
257.43	13766.01
257.5	13690.42
257.571	13682.95
257.641	13727.06
257.711	13690.13
257.781	13726.48
257.852	13741.85
257.922	13686.03
257.992	13689.26
258.062	13675.52
258.132	13721.61
258.202	13718.28
258.273	13731.54
258.343	13803.56
258.413	13796.81
258.483	13797.15
258.553	13769.77
258.623	13737.9
258.693	13765.33
258.764	13827.18
258.834	13900.79
258.904	13918.19
258.974	13904.07
259.044	13905.03
259.114	13934.1
259.184	13967.07
259.254	13979.41
259.324	13930.97
259.394	13978.31
259.464	14053.94
259.535	14065.17
259.605	14054.37
259.675	14053.55
259.745	14083.3
259.815	14063.77
259.885	14056.16
259.955	14173.67
260.025	14158.3
260.095	14175.46
260.165	14205.34
260.235	14271.87
260.305	14249.26
260.375	14209.01
260.445	14303.2
260.515	14382.21
260.585	14425.3
260.655	14434.61
260.725	14474.04
260.795	14507.93
260.865	14579.56
260.934	14548.8
261.004	14576.33
261.074	14583.9
261.144	14640.44
261.214	14676.35
261.284	14676.16
261.354	14721.86
261.424	14677.76
261.494	14755.18
261.564	14760.24
261.634	14793.26
261.703	14715.07
261.773	14751.52
261.843	14786.75
261.913	14780.82
261.983	14724.18
262.053	14748.33
262.123	14748.43
262.192	14709.19
262.262	14754.6
262.332	14705.29
262.402	14740.14
262.472	14749.54
262.541	14686.77
262.611	14743.03
262.681	14716.03
262.751	14758.74
262.821	14761.44
262.89	14736.76
262.96	14761.44
263.03	14841.02
263.1	14859.44
