Data from 20250701_urea_2M_exp3_MAYP1162681_00-29-50-389.txt Node
Date: Wed Jul 02 00:29:50 BST 2025
User: adleo
Spectrometer: MAYP116268
Trigger mode: 0
Integration Time (sec): 4.000000E0
Scans to average: 1
Electric dark correction enabled: true
Nonlinearity correction enabled: true
Boxcar width: 10
XAxis mode: Wavelengths
Number of Pixels in Spectrum: 2068
>>>>>Begin Spectral Data<<<<<
179.565	3709.77
179.642	3903.82
179.718	4053.99
179.795	4185.01
179.871	4305.14
179.948	4367.21
180.024	4439.62
180.101	4521.83
180.177	4576.15
180.254	4652.74
180.33	4729.85
180.407	5002.43
180.483	5289.67
180.56	5586.2
180.636	5855.47
180.712	5823.16
180.789	5859
180.865	5903.29
180.942	5935.04
181.018	5973.03
181.095	6022.53
181.171	6036.68
181.248	6040.37
181.324	6096.59
181.4	6126.3
181.477	6158.65
181.553	6204.69
181.63	6276.88
181.706	6327.48
181.782	6351.66
181.859	6354.87
181.935	6370.62
182.011	6356.5
182.088	6419.21
182.164	6483.2
182.24	6528.21
182.317	6553.26
182.393	6545.49
182.469	6594.07
182.546	6637.34
182.622	6653.42
182.698	6637.28
182.775	6682.47
182.851	6730.1
182.927	6702.68
183.003	6682.95
183.08	6664.66
183.156	6697.6
183.232	6684.49
183.308	6648.09
183.385	6679.15
183.461	6733.85
183.537	6740.24
183.613	6781.64
183.69	6745.66
183.766	6706.54
183.842	6736.57
183.918	6752.42
183.995	6798.52
184.071	6807.46
184.147	6787.77
184.223	6753.93
184.299	6792.03
184.375	6758.94
184.452	6781.24
184.528	6907.99
184.604	6948.23
184.68	6990.54
184.756	7011.3
184.832	7031.48
184.908	7048.62
184.985	7047.42
185.061	6996.89
185.137	7026.39
185.213	6989.26
185.289	6999.39
185.365	6977.21
185.441	6967.65
185.517	7013.79
185.593	6997.98
185.669	6991.93
185.745	7025.13
185.822	7081.35
185.898	7054.2
185.974	7085.32
186.05	7059.65
186.126	6983.11
186.202	6955.16
186.278	6941.51
186.354	6906.92
186.43	6927.93
186.506	6922.84
186.582	6916.35
186.658	6939.06
186.734	6869.29
186.81	6879.23
186.886	6882.69
186.962	6923.51
187.038	6914.67
187.114	6891.11
187.19	6919.75
187.266	6882.39
187.341	6889.89
187.417	6867.75
187.493	6862.61
187.569	6866.4
187.645	6840.32
187.721	6800.68
187.797	6831.8
187.873	6845.69
187.949	6830.95
188.025	6802.97
188.101	6813.82
188.176	6833.03
188.252	6817.38
188.328	6843.87
188.404	6841.04
188.48	6822.45
188.556	6802.52
188.632	6793.87
188.707	6795.79
188.783	6779.02
188.859	6764.96
188.935	6723.98
189.011	6739.01
189.086	6725.8
189.162	6701.55
189.238	6701.98
189.314	6695.54
189.39	6675.51
189.465	6651.06
189.541	6706.84
189.617	6661.17
189.693	6642.44
189.768	6654.41
189.844	6732.36
189.92	6709.18
189.996	6740.26
190.071	6779.55
190.147	6774.31
190.223	6809.43
190.298	6781.47
190.374	6743.43
190.45	6790.1
190.526	6813.44
190.601	6799.9
190.677	6803.26
190.753	6896.86
190.828	6906.7
190.904	6959.37
190.98	7016.27
191.055	7054.85
191.131	7020.35
191.207	7091.44
191.282	7120.3
191.358	7088.74
191.433	7042.15
191.509	7089.54
191.585	7081.03
191.66	7087.19
191.736	7110.2
191.811	7076.32
191.887	7130.64
191.963	7205.84
192.038	7215.21
192.114	7226.26
192.189	7244.03
192.265	7230.21
192.34	7153.03
192.416	7149.38
192.491	7130.34
192.567	7133.28
192.642	7139.05
192.718	7145
192.793	7102.76
192.869	7090.9
192.944	7101.94
193.02	7127.8
193.095	7137.6
193.171	7151.4
193.246	7149.14
193.322	7142.89
193.397	7151.44
193.473	7104.33
193.548	7044.11
193.624	7070.02
193.699	7059.93
193.775	7107.43
193.85	7112.56
193.925	7142.55
194.001	7137.85
194.076	7116.9
194.152	7079.64
194.227	7050.8
194.302	7017.67
194.378	7026.61
194.453	7017.24
194.529	7056.27
194.604	7007.4
194.679	6981.84
194.755	6924.35
194.83	6965.47
194.905	6962.54
194.981	6993.96
195.056	6972.88
195.131	6991.66
195.207	6983.82
195.282	6953.51
195.357	6894.39
195.433	6948.96
195.508	6915.8
195.583	6944.86
195.659	6994.23
195.734	7017.01
195.809	7015.76
195.884	7047.59
195.96	7052.74
196.035	7104.86
196.11	7087.13
196.185	7125.18
196.261	7140.69
196.336	7238.28
196.411	7189.1
196.486	7205.92
196.561	7176.31
196.637	7201.67
196.712	7261.25
196.787	7272.45
196.862	7325.59
196.937	7359.66
197.013	7383.03
197.088	7412.73
197.163	7479.86
197.238	7534.72
197.313	7536.93
197.388	7584.14
197.464	7685.43
197.539	7720.42
197.614	7695.43
197.689	7739.95
197.764	7800.46
197.839	7862.92
197.914	7840.36
197.989	7914.85
198.065	7966.17
198.14	8137.58
198.215	8229.55
198.29	8272.33
198.365	8313.95
198.44	8350.99
198.515	8447.27
198.59	8500.55
198.665	8585.81
198.74	8616.28
198.815	8619.26
198.89	8696.83
198.965	8795.75
199.04	8782.27
199.115	8835.05
199.19	8983.51
199.265	8995.49
199.34	9022.97
199.415	9143.41
199.49	9223.34
199.565	9258.67
199.64	9336.72
199.715	9326.36
199.79	9346.1
199.865	9359.68
199.94	9350.1
200.015	9454.5
200.09	9468.57
200.165	9485.37
200.24	9504.87
200.315	9642.09
200.39	9694.11
200.464	9711.63
200.539	9723.44
200.614	9775.92
200.689	9851.92
200.764	9870.42
200.839	9929.88
200.914	9950.68
200.989	9914.59
201.063	9953.12
201.138	9892.14
201.213	9886.36
201.288	9821.64
201.363	9844.32
201.438	9844.75
201.512	9902.28
201.587	9845.78
201.662	9858.45
201.737	9899.53
201.812	9932.97
201.886	9819.2
201.961	9849.55
202.036	9809.69
202.111	9797.02
202.186	9696.86
202.26	9637.51
202.335	9568.64
202.41	9546.1
202.485	9487.42
202.559	9422.36
202.634	9338.68
202.709	9370.82
202.784	9304.67
202.858	9304.86
202.933	9233.99
203.008	9209.77
203.082	9141.56
203.157	9131.4
203.232	8988.29
203.306	8912.4
203.381	8804.21
203.456	8724.93
203.53	8648.34
203.605	8578.65
203.68	8496.42
203.754	8476.9
203.829	8428
203.904	8356.74
203.978	8317.27
204.053	8329.35
204.127	8283.99
204.202	8283.02
204.277	8221.74
204.351	8199.27
204.426	8170.92
204.5	8149.08
204.575	8033.44
204.65	8066.4
204.724	8041.76
204.799	8063.96
204.873	8048.23
204.948	8040
205.022	8001.3
205.097	7967.31
205.171	8013.82
205.246	8040.24
205.32	8034.47
205.395	8040.05
205.469	8011.4
205.544	8025.89
205.618	7964.99
205.693	8004.97
205.767	7958.22
205.842	8030.82
205.916	8006.1
205.991	7972.24
206.065	7991
206.14	8044.63
206.214	8033.03
206.289	8006.27
206.363	8049.08
206.438	8058.22
206.512	8086.56
206.586	8148.74
206.661	8175.89
206.735	8106.76
206.81	8109.89
206.884	8163.17
206.958	8116.86
207.033	8174.17
207.107	8203.72
207.181	8311.08
207.256	8288.37
207.33	8351.53
207.405	8391.55
207.479	8462.6
207.553	8493.82
207.628	8437.32
207.702	8472
207.776	8451.16
207.851	8469.64
207.925	8516.14
207.999	8508.63
208.073	8499.01
208.148	8508.2
208.222	8473.89
208.296	8577.86
208.371	8627.99
208.445	8660.57
208.519	8757.43
208.593	8792.61
208.668	8778.94
208.742	8790.25
208.816	8796.17
208.89	8842.1
208.965	8836.42
209.039	8859.44
209.113	8914.02
209.187	8986.93
209.261	8977.12
209.336	9038.2
209.41	9099.63
209.484	9103.87
209.558	9183.85
209.632	9222.88
209.707	9262.17
209.781	9333.99
209.855	9389.76
209.929	9447
210.003	9472.81
210.077	9470.45
210.151	9639.18
210.226	9751.09
210.3	9847.46
210.374	9933.16
210.448	9949.39
210.522	9987.11
210.596	10029.54
210.67	10059.84
210.744	10215.34
210.818	10323.29
210.892	10392.18
210.966	10374.22
211.041	10430.63
211.115	10407.41
211.189	10493.83
211.263	10548.85
211.337	10577.41
211.411	10619.43
211.485	10603.38
211.559	10643.22
211.633	10650.54
211.707	10535.17
211.781	10563.7
211.855	10431.88
211.929	10395.95
212.003	10331.24
212.077	10356.92
212.151	10391.56
212.225	10421.39
212.299	10382.25
212.373	10344.05
212.447	10330.61
212.52	10425.57
212.594	10428.46
212.668	10463
212.742	10411.44
212.816	10388.65
212.89	10363.65
212.964	10353.43
213.038	10363.94
213.112	10395.07
213.186	10436.78
213.26	10362.68
213.333	10199.48
213.407	10214.55
213.481	10216.33
213.555	10247.62
213.629	10203.2
213.703	10137.67
213.777	10126.73
213.85	10053.65
213.924	10156.62
213.998	10148.19
214.072	10112.38
214.146	10054.53
214.219	10037.95
214.293	10016.47
214.367	10006.84
214.441	10027.36
214.515	9980.34
214.588	9878.75
214.662	9751.8
214.736	9668.54
214.81	9681.05
214.883	9697.66
214.957	9652.26
215.031	9594.6
215.105	9501.94
215.178	9442.08
215.252	9402.88
215.326	9297
215.4	9210.32
215.473	9026.25
215.547	8937.54
215.621	8867.6
215.694	8865.29
215.768	8767.57
215.842	8697.26
215.915	8631.82
215.989	8512.48
216.063	8447.63
216.136	8428.52
216.21	8404.75
216.284	8411.11
216.357	8383.97
216.431	8336.72
216.504	8323.73
216.578	8382.2
216.652	8391.67
216.725	8361.35
216.799	8363.42
216.873	8347.5
216.946	8351.25
217.02	8313.47
217.093	8273.63
217.167	8178.33
217.24	8091.86
217.314	8057.38
217.387	8011.47
217.461	7963.85
217.535	7984.92
217.608	7920.67
217.682	7887.33
217.755	7901.09
217.829	7847.06
217.902	7836.91
217.976	7821.05
218.049	7777.86
218.123	7699.28
218.196	7695.73
218.27	7660.57
218.343	7593.07
218.417	7582.54
218.49	7564.85
218.563	7604.75
218.637	7616.73
218.71	7691.71
218.784	7723.94
218.857	7759.32
218.931	7780.95
219.004	7793.4
219.077	7812.03
219.151	7840.29
219.224	7834.57
219.298	7823.41
219.371	7869.83
219.444	7824.83
219.518	7834.59
219.591	7855.84
219.665	7961.2
219.738	7979.62
219.811	7962.75
219.885	8003.96
219.958	8044.47
220.031	8045.04
220.105	8068.14
220.178	8072.13
220.251	8042.54
220.325	8064.63
220.398	8081.22
220.471	8105.03
220.544	8136.1
220.618	8110.89
220.691	8134.7
220.764	8155.76
220.838	8186.85
220.911	8168.42
220.984	8249.21
221.057	8286.49
221.131	8303.14
221.204	8206.77
221.277	8278.53
221.35	8403.25
221.424	8397.91
221.497	8405.56
221.57	8428.98
221.643	8463.34
221.716	8516.77
221.79	8519.56
221.863	8525.09
221.936	8531.3
222.009	8543.71
222.082	8572.02
222.155	8578.41
222.229	8646
222.302	8673.47
222.375	8679.64
222.448	8718.91
222.521	8732.1
222.594	8728.63
222.667	8709.63
222.74	8763.04
222.814	8757.17
222.887	8743.01
222.96	8795.76
223.033	8846.37
223.106	8872.25
223.179	8900.76
223.252	8914.97
223.325	8950.67
223.398	8965.12
223.471	8991.11
223.544	9015.17
223.617	9026.58
223.69	9053.67
223.763	9015.06
223.837	9040.38
223.91	9068.64
223.983	9018.06
224.056	8979.18
224.129	9001.94
224.202	9053.18
224.275	9043.65
224.348	9007.88
224.42	8969.9
224.493	8913.63
224.566	8878.48
224.639	8898.69
224.712	8870.09
224.785	8849.91
224.858	8835.91
224.931	8819.97
225.004	8776.66
225.077	8774.3
225.15	8682.78
225.223	8681.73
225.296	8758.59
225.369	8700.5
225.442	8666.27
225.514	8695.67
225.587	8720.89
225.66	8727.58
225.733	8729.02
225.806	8743.61
225.879	8737.5
225.952	8705.5
226.025	8746.6
226.097	8798.23
226.17	8788.17
226.243	8715.7
226.316	8712.28
226.389	8723.35
226.461	8745.88
226.534	8775.62
226.607	8764.65
226.68	8850.1
226.753	8846.63
226.825	8768.71
226.898	8828.15
226.971	8834.12
227.044	8848.27
227.117	8847.93
227.189	8867.96
227.262	8901.95
227.335	8910.57
227.407	8907.68
227.48	8943.77
227.553	8967.27
227.626	8948.82
227.698	8957.34
227.771	9006.17
227.844	8985.86
227.916	9000.78
227.989	8963.52
228.062	8956.11
228.134	9041.62
228.207	9039.75
228.28	9030.84
228.352	9039.8
228.425	9047.36
228.498	9097.09
228.57	9078.03
228.643	9145.64
228.716	9144.78
228.788	9132.98
228.861	9130.23
228.934	9186.84
229.006	9191.66
229.079	9189.54
229.151	9175.96
229.224	9140.06
229.296	9162.59
229.369	9264.79
229.442	9309.77
229.514	9286.87
229.587	9333.95
229.659	9255.6
229.732	9274.38
229.804	9318.58
229.877	9402.82
229.949	9432.68
230.022	9481.72
230.094	9479.85
230.167	9464.1
230.239	9418.99
230.312	9407.77
230.384	9475.49
230.457	9480.12
230.529	9488.49
230.602	9485.12
230.674	9499.18
230.747	9547.6
230.819	9586.71
230.892	9471.37
230.964	9472
231.037	9501.73
231.109	9492.49
231.181	9535
231.254	9493.74
231.326	9477.89
231.399	9449.66
231.471	9415.75
231.544	9331.51
231.616	9377.96
231.688	9378.93
231.761	9370.99
231.833	9359.82
231.905	9278.04
231.978	9272.69
232.05	9257.14
232.122	9268.08
232.195	9239.23
232.267	9273.13
232.339	9239.08
232.412	9302.68
232.484	9281.15
232.556	9260.5
232.629	9329.2
232.701	9350.63
232.773	9365.89
232.846	9352.07
232.918	9359.06
232.99	9377.31
233.062	9421.13
233.135	9434.95
233.207	9406.01
233.279	9447.89
233.351	9484.72
233.424	9488.52
233.496	9464.93
233.568	9551.09
233.64	9505.83
233.713	9525.62
233.785	9519.69
233.857	9539.05
233.929	9484.65
234.001	9545.74
234.074	9610.15
234.146	9538.81
234.218	9530.67
234.29	9533.22
234.362	9527.88
234.434	9479.57
234.507	9445.09
234.579	9391.83
234.651	9374.2
234.723	9405.56
234.795	9423.61
234.867	9412.59
234.939	9470.18
235.012	9493.83
235.084	9497.63
235.156	9538.99
235.228	9518
235.3	9503.74
235.372	9508.75
235.444	9573.12
235.516	9497.92
235.588	9506.79
235.66	9524.31
235.732	9502.69
235.804	9695.78
235.876	9736.08
235.948	9805.68
236.02	9823.01
236.092	9842.51
236.164	9851.23
236.236	9850.46
236.308	9855.76
236.38	9881.76
236.452	9864.42
236.524	9874.63
236.596	9936.03
236.668	9971.15
236.74	10005.77
236.812	10035.39
236.884	10070.65
236.956	10081.06
237.028	10072.78
237.1	10049.8
237.172	10121.35
237.244	10198.67
237.316	10085.35
237.388	10072.88
237.46	10047.92
237.532	10112.71
237.604	10101.3
237.675	10176.74
237.747	10221.11
237.819	10201.18
237.891	10208.98
237.963	10200.31
238.035	10200.26
238.107	10085.25
238.178	10148.04
238.25	10153.05
238.322	10241.43
238.394	10200.24
238.466	10200.39
238.538	10248.79
238.609	10299.32
238.681	10241.69
238.753	10216.97
238.825	10234.47
238.897	10264.62
238.968	10346.3
239.04	10326.21
239.112	10439.46
239.184	10397.11
239.255	10389.21
239.327	10424.7
239.399	10449.13
239.471	10498.51
239.542	10540.03
239.614	10615.48
239.686	10529.32
239.758	10584.97
239.829	10547.67
239.901	10611.4
239.973	10623.88
240.044	10660.69
240.116	10671.1
240.188	10686.04
240.259	10705.02
240.331	10689.26
240.403	10724.53
240.474	10670.45
240.546	10660.14
240.618	10595.43
240.689	10600.92
240.761	10622.27
240.833	10699.66
240.904	10696.91
240.976	10695.85
241.048	10705.92
241.119	10736.62
241.191	10784.08
241.262	10845.48
241.334	10851.07
241.405	10857.87
241.477	10866.49
241.549	10868.66
241.62	10898.11
241.692	10947.74
241.763	11008.8
241.835	11032.32
241.906	11056.8
241.978	11030.78
242.049	11101.09
242.121	11171.63
242.192	11242.61
242.264	11213.22
242.335	11157.27
242.407	11205.37
242.478	11206.91
242.55	11231.87
242.621	11218.09
242.693	11219.29
242.764	11202.9
242.836	11200.68
242.907	11227.14
242.979	11260.44
243.05	11282.47
243.122	11295.05
243.193	11280.59
243.264	11202.95
243.336	11211.87
243.407	11244.78
243.479	11325.65
243.55	11341.27
243.622	11357.56
243.693	11353.17
243.764	11419.29
243.836	11403.87
243.907	11391.97
243.978	11403.34
244.05	11432.11
244.121	11388.12
244.192	11432.75
244.264	11388.5
244.335	11410.96
244.407	11364.07
244.478	11381.71
244.549	11371.25
244.62	11333.76
244.692	11348.26
244.763	11401.22
244.834	11385.66
244.906	11361.22
244.977	11381.75
245.048	11435.36
245.119	11409.43
245.191	11382.58
245.262	11317.09
245.333	11385.61
245.405	11398.29
245.476	11431.93
245.547	11445.28
245.618	11500.07
245.689	11515.59
245.761	11553.72
245.832	11559.64
245.903	11604.85
245.974	11631.26
246.045	11648.57
246.117	11733.44
246.188	11709.35
246.259	11685.78
246.33	11705.88
246.401	11717.39
246.473	11687.27
246.544	11665.09
246.615	11723.75
246.686	11725.78
246.757	11814.6
246.828	11794.31
246.899	11873.12
246.97	11832.59
247.042	11820.16
247.113	11866.77
247.184	11947.99
247.255	11942.21
247.326	11964.67
247.397	11978.41
247.468	11983.08
247.539	11996
247.61	11950.21
247.681	12000
247.752	12056.29
247.823	12031.13
247.894	12049.55
247.965	12022.51
248.037	12018.07
248.108	11965.73
248.179	11982.79
248.25	11963.65
248.321	11996.43
248.392	11949.14
248.463	12040.57
248.534	12040.66
248.605	12057.54
248.675	12036.04
248.746	12057.44
248.817	12074.21
248.888	12091.76
248.959	12042.4
249.03	12076.19
249.101	12085.06
249.172	12070.51
249.243	11997.54
249.314	12066.9
249.385	12073.69
249.456	12101.84
249.527	12097.02
249.598	12122.8
249.669	12122.52
249.739	12139.92
249.81	12150.57
249.881	12105.17
249.952	12094.66
250.023	12093.74
250.094	12037.58
250.165	11998.63
250.235	11993.48
250.306	11999.65
250.377	11966.48
250.448	11991.45
250.519	11922.91
250.59	11986.34
250.66	11981.72
250.731	12057.87
250.802	12049.53
250.873	12064.71
250.944	12083.56
251.014	12070.64
251.085	12161.07
251.156	12181.13
251.227	12231.98
251.297	12288.43
251.368	12344.39
251.439	12383.05
251.51	12440.8
251.58	12426.29
251.651	12424.94
251.722	12478.79
251.792	12427.31
251.863	12435.84
251.934	12496.86
252.005	12614.14
252.075	12619.78
252.146	12671.98
252.217	12722.84
252.287	12770.13
252.358	12775.58
252.429	12851.69
252.499	12848.03
252.57	12854.44
252.641	12909.88
252.711	12908.48
252.782	12862.78
252.852	12938.51
252.923	12940.59
252.994	12951.14
253.064	13008.45
253.135	12990.52
253.205	12967.96
253.276	13048.22
253.347	13110.94
253.417	13092.33
253.488	13064.71
253.558	13055.16
253.629	13054.63
253.699	13066.01
253.77	13093.73
253.841	13095.22
253.911	13107.8
253.982	13121.64
254.052	13149.21
254.123	13152.63
254.193	13164.3
254.264	13296.77
254.334	13257.86
254.405	13219.97
254.475	13187.39
254.546	13196.64
254.616	13259.07
254.687	13293.05
254.757	13312
254.827	13304.14
254.898	13326.56
254.968	13336.54
255.039	13318.51
255.109	13354.37
255.18	13322.99
255.25	13250.73
255.321	13276.33
255.391	13231.64
255.461	13320.34
255.532	13241.38
255.602	13239.3
255.673	13182.66
255.743	13152.34
255.813	13083.12
255.884	13133.3
255.954	13171.72
256.024	13231.26
256.095	13236.17
256.165	13196.69
256.235	13218.39
256.306	13204.99
256.376	13251.6
256.446	13287.23
256.517	13312.15
256.587	13357.03
256.657	13377.66
256.728	13407.07
256.798	13420.9
256.868	13417.38
256.938	13385.57
257.009	13427.75
257.079	13458.89
257.149	13555.4
257.219	13490.08
257.29	13536.26
257.36	13485.06
257.43	13521.07
257.5	13465.2
257.571	13456.86
257.641	13495.14
257.711	13458.84
257.781	13495.42
257.852	13508.59
257.922	13455.94
257.992	13466.4
258.062	13454.16
258.132	13496.15
258.202	13496.97
258.273	13509.4
258.343	13584.03
258.413	13564.41
258.483	13572.84
258.553	13540.02
258.623	13517.6
258.693	13546.23
258.764	13604.8
258.834	13671.43
258.904	13682.08
258.974	13664.77
259.044	13678.56
259.114	13708.26
259.184	13736.75
259.254	13747.64
259.324	13698.28
259.394	13741.81
259.464	13816.19
259.535	13821.49
259.605	13813.2
259.675	13804.96
259.745	13838.94
259.815	13812.62
259.885	13823.85
259.955	13934.96
260.025	13924.6
260.095	13937.76
260.165	13967.02
260.235	14034.41
260.305	14018.07
260.375	13985.04
260.445	14070.95
260.515	14133.18
260.585	14175.17
260.655	14184.33
260.725	14232.2
260.795	14270.37
260.865	14331.64
260.934	14303.06
261.004	14342.63
261.074	14342.15
261.144	14400.48
261.214	14442.9
261.284	14446.32
261.354	14482.48
261.424	14435.97
261.494	14511.6
261.564	14513.48
261.634	14548.77
261.703	14476.27
261.773	14504.08
261.843	14545.06
261.913	14540.72
261.983	14484.03
262.053	14513.63
262.123	14513.19
262.192	14471.54
262.262	14511.5
262.332	14474.77
262.402	14505.48
262.472	14514.78
262.541	14460.74
262.611	14508.18
262.681	14474.24
262.751	14515.17
262.821	14516.66
262.89	14495.36
262.96	14519.79
263.03	14604.63
263.1	14620.59
263.169	14650.04
