Data from 20250701_urea_2M_exp3_MAYP1162681_18-29-52-115.txt Node
Date: Tue Jul 01 18:29:52 BST 2025
User: adleo
Spectrometer: MAYP116268
Trigger mode: 0
Integration Time (sec): 4.000000E0
Scans to average: 1
Electric dark correction enabled: true
Nonlinearity correction enabled: true
Boxcar width: 10
XAxis mode: Wavelengths
Number of Pixels in Spectrum: 2068
>>>>>Begin Spectral Data<<<<<
179.565	4040.14
179.642	4255.95
179.718	4422.97
179.795	4569.08
179.871	4692.09
179.948	4758.46
180.024	4835.7
180.101	4921.71
180.177	4977.98
180.254	5065.97
180.33	5149.57
180.407	5443.09
180.483	5758.16
180.56	6074.01
180.636	6366.43
180.712	6328.39
180.789	6368.96
180.865	6416.31
180.942	6447.93
181.018	6485.62
181.095	6536.84
181.171	6547.78
181.248	6550.52
181.324	6605.1
181.4	6631.66
181.477	6669.94
181.553	6716.26
181.63	6797.11
181.706	6855.43
181.782	6886.01
181.859	6882.69
181.935	6905.13
182.011	6893.22
182.088	6951.31
182.164	7028.51
182.24	7080.18
182.317	7106.22
182.393	7101.94
182.469	7154.02
182.546	7202.99
182.622	7216.82
182.698	7201.01
182.775	7252.96
182.851	7302.7
182.927	7274.29
183.003	7262.67
183.08	7247.1
183.156	7286.36
183.232	7270.11
183.308	7229.16
183.385	7261.64
183.461	7323.5
183.537	7325.23
183.613	7374.45
183.69	7342.87
183.766	7298.91
183.842	7322.71
183.918	7340.78
183.995	7386.34
184.071	7405.82
184.147	7389.04
184.223	7355.27
184.299	7398.11
184.375	7350.58
184.452	7373.96
184.528	7512.34
184.604	7549.49
184.68	7584.47
184.756	7610.2
184.832	7627.37
184.908	7648.26
184.985	7635.63
185.061	7577.18
185.137	7607.13
185.213	7563.58
185.289	7569.06
185.365	7547.63
185.441	7545.9
185.517	7603.72
185.593	7585.69
185.669	7570.68
185.745	7605.25
185.822	7659.3
185.898	7631.12
185.974	7663.6
186.05	7637.77
186.126	7557.38
186.202	7529.12
186.278	7518.01
186.354	7482.05
186.43	7504.89
186.506	7497.35
186.582	7503.02
186.658	7530.84
186.734	7457.51
186.81	7465.05
186.886	7476.73
186.962	7517.49
187.038	7502.49
187.114	7472.47
187.19	7504.35
187.266	7465.27
187.341	7464.22
187.417	7439.51
187.493	7436.43
187.569	7454.32
187.645	7430.48
187.721	7385.66
187.797	7417.24
187.873	7432.82
187.949	7413.16
188.025	7391.47
188.101	7399.97
188.176	7416.46
188.252	7399.45
188.328	7431.63
188.404	7433.5
188.48	7414.23
188.556	7393.75
188.632	7391.35
188.707	7393.66
188.783	7382.4
188.859	7371.12
188.935	7336.45
189.011	7363.99
189.086	7340.3
189.162	7302.76
189.238	7291.04
189.314	7284.02
189.39	7262.72
189.465	7236.53
189.541	7294.55
189.617	7242.41
189.693	7222.9
189.768	7239.01
189.844	7326.2
189.92	7295.17
189.996	7324.88
190.071	7365.45
190.147	7357.33
190.223	7388.39
190.298	7355.26
190.374	7307.39
190.45	7347.36
190.526	7378.18
190.601	7362.02
190.677	7366.97
190.753	7470.54
190.828	7485.19
190.904	7540.34
190.98	7590.78
191.055	7636.32
191.131	7606.45
191.207	7677.31
191.282	7710.51
191.358	7676.24
191.433	7622.16
191.509	7671.07
191.585	7660.78
191.66	7667.13
191.736	7695.11
191.811	7658.9
191.887	7721.14
191.963	7806.54
192.038	7823.71
192.114	7827.12
192.189	7837.84
192.265	7832.07
192.34	7755.67
192.416	7748.79
192.491	7736.14
192.567	7743.75
192.642	7746.01
192.718	7748.94
192.793	7706.29
192.869	7696.19
192.944	7698.5
193.02	7727.98
193.095	7742.21
193.171	7761.3
193.246	7756.16
193.322	7746.59
193.397	7752.31
193.473	7697.18
193.548	7631.97
193.624	7654.57
193.699	7648.51
193.775	7712.16
193.85	7715.38
193.925	7746.4
194.001	7746.16
194.076	7714.23
194.152	7682.97
194.227	7652.67
194.302	7616.86
194.378	7629.99
194.453	7614.13
194.529	7666.5
194.604	7616.39
194.679	7596.44
194.755	7530.69
194.83	7576.45
194.905	7570.97
194.981	7606.89
195.056	7586.99
195.131	7612.18
195.207	7601.79
195.282	7567.66
195.357	7492.86
195.433	7543.15
195.508	7501.21
195.583	7534.86
195.659	7591.04
195.734	7612.06
195.809	7612.59
195.884	7646.13
195.96	7648.82
196.035	7709.59
196.11	7689.1
196.185	7727.71
196.261	7738.48
196.336	7851.28
196.411	7797.64
196.486	7813.41
196.561	7785.18
196.637	7813.73
196.712	7867
196.787	7876.76
196.862	7931.72
196.937	7968.02
197.013	7992.56
197.088	8027.76
197.163	8099.46
197.238	8158.34
197.313	8156.95
197.388	8203.56
197.464	8310.49
197.539	8342.72
197.614	8319.73
197.689	8366.06
197.764	8425.6
197.839	8499.93
197.914	8472.21
197.989	8551.28
198.065	8602.76
198.14	8790.73
198.215	8890.02
198.29	8928.88
198.365	8980.24
198.44	9018.06
198.515	9119.16
198.59	9174.53
198.665	9273.71
198.74	9302.65
198.815	9299.95
198.89	9384.97
198.965	9498.39
199.04	9483.65
199.115	9549.37
199.19	9700.5
199.265	9710.13
199.34	9750.34
199.415	9867.65
199.49	9950.66
199.565	9987.7
199.64	10074.73
199.715	10064.32
199.79	10084.55
199.865	10114.75
199.94	10106.9
200.015	10217.46
200.09	10234.85
200.165	10254.75
200.24	10274.41
200.315	10415.75
200.39	10479.3
200.464	10498.19
200.539	10501.51
200.614	10555.13
200.689	10633.61
200.764	10653.85
200.839	10716.8
200.914	10726.05
200.989	10690.19
201.063	10736.64
201.138	10670.19
201.213	10669.42
201.288	10595.22
201.363	10615.99
201.438	10614.3
201.512	10669.83
201.587	10612.3
201.662	10626.71
201.737	10671.52
201.812	10701.88
201.886	10585.15
201.961	10614.01
202.036	10574.08
202.111	10563
202.186	10462.26
202.26	10407.61
202.335	10332.79
202.41	10308.51
202.485	10252.59
202.559	10180.09
202.634	10085.15
202.709	10119.14
202.784	10044.24
202.858	10040.77
202.933	9968.57
203.008	9943.13
203.082	9876.96
203.157	9869.54
203.232	9718.85
203.306	9641.91
203.381	9523.03
203.456	9437.7
203.53	9357.76
203.605	9286.53
203.68	9200.46
203.754	9176.02
203.829	9116.01
203.904	9041.49
203.978	9000.94
204.053	9015.1
204.127	8970.62
204.202	8969.95
204.277	8907.95
204.351	8885.43
204.426	8864.24
204.5	8832.23
204.575	8706.02
204.65	8741.8
204.724	8711.46
204.799	8734.45
204.873	8715.38
204.948	8714.66
205.022	8673.33
205.097	8637.79
205.171	8680.67
205.246	8711.63
205.32	8702.97
205.395	8697.43
205.469	8666.7
205.544	8689.33
205.618	8626.18
205.693	8668.11
205.767	8621.52
205.842	8698.11
205.916	8678.38
205.991	8643.1
206.065	8663.6
206.14	8722.89
206.214	8709.07
206.289	8682.74
206.363	8725.62
206.438	8735.15
206.512	8755.08
206.586	8825.29
206.661	8857.07
206.735	8777.99
206.81	8774.91
206.884	8836.12
206.958	8795.94
207.033	8859.88
207.107	8886.37
207.181	8996.62
207.256	8972.31
207.33	9038.93
207.405	9084.36
207.479	9154.25
207.553	9177.74
207.628	9123.9
207.702	9162.6
207.776	9131.21
207.851	9145.6
207.925	9206.91
207.999	9197.28
208.073	9190.3
208.148	9195.02
208.222	9149.95
208.296	9268.9
208.371	9332.25
208.445	9370.24
208.519	9473.36
208.593	9510.78
208.668	9495.31
208.742	9504.03
208.816	9511.45
208.89	9561.93
208.965	9552.49
209.039	9584.76
209.113	9652.33
209.187	9723.84
209.261	9709.15
209.336	9779.99
209.41	9849.16
209.484	9847.23
209.558	9931.09
209.632	9980.4
209.707	10025.49
209.781	10109
209.855	10161.13
209.929	10221.28
210.003	10244.11
210.077	10240.21
210.151	10421.37
210.226	10542.27
210.3	10643.73
210.374	10732.69
210.448	10749.31
210.522	10784.92
210.596	10819.67
210.67	10848.53
210.744	11021.81
210.818	11137.75
210.892	11215.72
210.966	11195.68
211.041	11244.35
211.115	11221.99
211.189	11302.47
211.263	11361.3
211.337	11383.81
211.411	11441.5
211.485	11417.45
211.559	11453.34
211.633	11461.29
211.707	11339.34
211.781	11366.68
211.855	11236.55
211.929	11200.08
212.003	11127.78
212.077	11164.89
212.151	11202.92
212.225	11237.61
212.299	11198.71
212.373	11152.07
212.447	11127.78
212.52	11229.32
212.594	11239.2
212.668	11279.58
212.742	11232.78
212.816	11213.31
212.89	11179.97
212.964	11162.66
213.038	11174.38
213.112	11213.13
213.186	11258.03
213.26	11174.99
213.333	11002.34
213.407	11009.56
213.481	11010.91
213.555	11046.36
213.629	10995.9
213.703	10924.48
213.777	10903.23
213.85	10821.25
213.924	10933.35
213.998	10924.73
214.072	10887.61
214.146	10827.33
214.219	10807.47
214.293	10776.88
214.367	10758.04
214.441	10787.05
214.515	10735.67
214.588	10630.15
214.662	10493.61
214.736	10400.01
214.81	10415.57
214.883	10437.91
214.957	10386.67
215.031	10323.25
215.105	10225.04
215.178	10148.73
215.252	10115.3
215.326	10006.05
215.4	9916.01
215.473	9718.29
215.547	9632.44
215.621	9560.5
215.694	9559.54
215.768	9451.8
215.842	9380.59
215.915	9310.69
215.989	9185.52
216.063	9122.71
216.136	9097.72
216.21	9071.63
216.284	9093.3
216.357	9063.26
216.431	9009.67
216.504	9010.2
216.578	9075.26
216.652	9085.74
216.725	9062.88
216.799	9061.24
216.873	9044.58
216.946	9046.8
217.02	9004.61
217.093	8964.03
217.167	8859.48
217.24	8771.8
217.314	8734.61
217.387	8683.53
217.461	8634.39
217.535	8662.78
217.608	8598.59
217.682	8574.61
217.755	8589.87
217.829	8528.63
217.902	8511.93
217.976	8495.09
218.049	8439.08
218.123	8350.25
218.196	8346.74
218.27	8310.7
218.343	8232.82
218.417	8231.57
218.49	8209.39
218.563	8265.53
218.637	8275.54
218.71	8351
218.784	8378.91
218.857	8414.37
218.931	8440.87
219.004	8455.35
219.077	8471.77
219.151	8490.82
219.224	8472.48
219.298	8459.15
219.371	8504.78
219.444	8460.53
219.518	8465.63
219.591	8489.64
219.665	8606.94
219.738	8626.71
219.811	8604.97
219.885	8661.43
219.958	8691.32
220.031	8693.91
220.105	8709.13
220.178	8714.47
220.251	8688.28
220.325	8712.84
220.398	8732.23
220.471	8757.11
220.544	8787.38
220.618	8762.01
220.691	8789.25
220.764	8813.36
220.838	8848.93
220.911	8831.79
220.984	8919.13
221.057	8961.73
221.131	8982.86
221.204	8879.66
221.277	8949.19
221.35	9083.26
221.424	9070.83
221.497	9079.65
221.57	9113.62
221.643	9146.99
221.716	9205.6
221.79	9202.66
221.863	9214.17
221.936	9224.09
222.009	9236.22
222.082	9274.5
222.155	9282.06
222.229	9350.16
222.302	9378.23
222.375	9380.2
222.448	9424.5
222.521	9437.22
222.594	9437.6
222.667	9408.49
222.74	9469.2
222.814	9465.54
222.887	9449.49
222.96	9508.2
223.033	9553.62
223.106	9577.02
223.179	9609.63
223.252	9614.4
223.325	9656.48
223.398	9667.9
223.471	9699.15
223.544	9723.8
223.617	9734.78
223.69	9760.49
223.763	9720.61
223.837	9746.86
223.91	9785.24
223.983	9729.49
224.056	9687.84
224.129	9714.08
224.202	9770.59
224.275	9754.75
224.348	9722.05
224.42	9684.53
224.493	9621.06
224.566	9601.45
224.639	9624.37
224.712	9594.65
224.785	9586.02
224.858	9576.54
224.931	9562.67
225.004	9518.56
225.077	9517.31
225.15	9416.25
225.223	9411.44
225.296	9501.39
225.369	9444.14
225.442	9405.9
225.514	9427.9
225.587	9453.56
225.66	9456.16
225.733	9458.61
225.806	9475.28
225.879	9467.91
225.952	9432.53
226.025	9482.22
226.097	9534.02
226.17	9520.05
226.243	9450.33
226.316	9441.66
226.389	9446.96
226.461	9464.64
226.534	9488.42
226.607	9480.77
226.68	9571.9
226.753	9569.97
226.825	9473.61
226.898	9539.29
226.971	9545.12
227.044	9566.5
227.117	9574.74
227.189	9594.05
227.262	9636.87
227.335	9646.99
227.407	9643.96
227.48	9680.78
227.553	9696.73
227.626	9675
227.698	9682.94
227.771	9725.69
227.844	9702.24
227.916	9721.55
227.989	9682.83
228.062	9684.37
228.134	9772.91
228.207	9776.28
228.28	9771.03
228.352	9793.14
228.425	9800.6
228.498	9854.55
228.57	9833.75
228.643	9900.09
228.716	9903.8
228.788	9890.69
228.861	9889.63
228.934	9952.87
229.006	9967.99
229.079	9972.76
229.151	9956.38
229.224	9922.29
229.296	9955.19
229.369	10066.87
229.442	10118.37
229.514	10095.65
229.587	10140.06
229.659	10065.39
229.732	10083.26
229.804	10130.32
229.877	10219.7
229.949	10255.6
230.022	10311.21
230.094	10315.26
230.167	10300.42
230.239	10250.95
230.312	10237.9
230.384	10316.39
230.457	10317.07
230.529	10323.38
230.602	10320.78
230.674	10328
230.747	10379.24
230.819	10411.33
230.892	10283.57
230.964	10280.87
231.037	10319.87
231.109	10309.12
231.181	10352.72
231.254	10314.32
231.326	10301.41
231.399	10266.18
231.471	10226.87
231.544	10135.94
231.616	10179.43
231.688	10189.26
231.761	10182.76
231.833	10176.74
231.905	10082.93
231.978	10080.9
232.05	10066.07
232.122	10077.49
232.195	10057.64
232.267	10092.86
232.339	10068.14
232.412	10140.2
232.484	10119.96
232.556	10095.5
232.629	10173.99
232.701	10193.51
232.773	10204.83
232.846	10190.76
232.918	10201.94
232.99	10225.02
233.062	10267.27
233.135	10290.88
233.207	10248.58
233.279	10296.21
233.351	10336.05
233.424	10340.58
233.496	10312.2
233.568	10404.23
233.64	10363.86
233.713	10383.85
233.785	10382.4
233.857	10397.73
233.929	10345.12
234.001	10412.35
234.074	10479.45
234.146	10401.29
234.218	10400.03
234.29	10403.07
234.362	10390.84
234.434	10341.64
234.507	10306.57
234.579	10254.01
234.651	10236.33
234.723	10269.76
234.795	10292.93
234.867	10280.99
234.939	10352
235.012	10373.59
235.084	10377.92
235.156	10416.17
235.228	10404.18
235.3	10384.95
235.372	10398.92
235.444	10463.23
235.516	10381.07
235.588	10389.65
235.66	10407.42
235.732	10374.71
235.804	10584.37
235.876	10635.09
235.948	10706.22
236.02	10720.72
236.092	10742.87
236.164	10750.92
236.236	10757.37
236.308	10755.83
236.38	10788.16
236.452	10763.25
236.524	10786.57
236.596	10851.93
236.668	10889.62
236.74	10910.67
236.812	10946.18
236.884	10987.15
236.956	10994.13
237.028	10990.66
237.1	10981.12
237.172	11058.86
237.244	11144.73
237.316	11023.16
237.388	11006.63
237.46	10984.03
237.532	11049.52
237.604	11044.7
237.675	11126.53
237.747	11170.44
237.819	11160.13
237.891	11165.86
237.963	11161.52
238.035	11162.63
238.107	11048.74
238.178	11119.26
238.25	11130.29
238.322	11227.32
238.394	11177.2
238.466	11184.19
238.538	11233
238.609	11272.81
238.681	11218.44
238.753	11197.96
238.825	11216.75
238.897	11254.58
238.968	11341.48
239.04	11329.24
239.112	11450.83
239.184	11403.89
239.255	11402.87
239.327	11440.89
239.399	11463.06
239.471	11511.93
239.542	11544.6
239.614	11615.45
239.686	11527.77
239.758	11588.74
239.829	11547.38
239.901	11617.69
239.973	11641.45
240.044	11677.7
240.116	11689.99
240.188	11705.17
240.259	11725.99
240.331	11716.93
240.403	11759.1
240.474	11713.4
240.546	11703.86
240.618	11639.42
240.689	11639.51
240.761	11668.05
240.833	11739.91
240.904	11741.89
240.976	11747.34
241.048	11777.51
241.119	11821.66
241.191	11877.48
241.262	11945.01
241.334	11954.36
241.405	11960.15
241.477	11963.81
241.549	11972.68
241.62	12010.81
241.692	12056.4
241.763	12119.6
241.835	12139.6
241.906	12155.8
241.978	12119.31
242.049	12194.74
242.121	12261.55
242.192	12349.86
242.264	12312.11
242.335	12262.47
242.407	12311.1
242.478	12311.05
242.55	12334.58
242.621	12320.31
242.693	12314.38
242.764	12305.7
242.836	12311.44
242.907	12342.77
242.979	12378.68
243.05	12410.21
243.122	12437.3
243.193	12442.07
243.264	12359.35
243.336	12370.39
243.407	12412.62
243.479	12510.28
243.55	12531.25
243.622	12548.36
243.693	12534.82
243.764	12613.1
243.836	12593.53
243.907	12588.71
243.978	12601.34
244.05	12625.78
244.121	12573.86
244.192	12623.03
244.264	12577.53
244.335	12588.9
244.407	12544.22
244.478	12565.14
244.549	12557.86
244.62	12506.57
244.692	12513.37
244.763	12574.54
244.834	12564.27
244.906	12542.53
244.977	12560.36
245.048	12617.06
245.119	12589.05
245.191	12570.01
245.262	12501.51
245.333	12588.56
245.405	12609.29
245.476	12645.93
245.547	12662.75
245.618	12721.12
245.689	12734.28
245.761	12773.28
245.832	12787.07
245.903	12837.15
245.974	12871.23
246.045	12886.42
246.117	12982.11
246.188	12959.64
246.259	12942.82
246.33	12964.85
246.401	12976.27
246.473	12936.74
246.544	12920.11
246.615	12995.56
246.686	13002.4
246.757	13082.8
246.828	13064.68
246.899	13140.8
246.97	13107.1
247.042	13101.03
247.113	13160.95
247.184	13260.3
247.255	13259.09
247.326	13281.32
247.397	13291.25
247.468	13296.89
247.539	13308.41
247.61	13261.26
247.681	13316.27
247.752	13376.19
247.823	13353.38
247.894	13377.01
247.965	13357.43
248.037	13343.7
248.108	13281.17
248.179	13295.2
248.25	13298.19
248.321	13323.11
248.392	13277.41
248.463	13365.24
248.534	13365.34
248.605	13379.32
248.675	13354.69
248.746	13378.45
248.817	13398.94
248.888	13420.05
248.959	13365.44
249.03	13396.39
249.101	13406.65
249.172	13394.02
249.243	13311.5
249.314	13382.5
249.385	13385.73
249.456	13417.98
249.527	13413.64
249.598	13450.72
249.669	13449.37
249.739	13458.38
249.81	13473.52
249.881	13424.35
249.952	13416.15
250.023	13418.51
250.094	13363.7
250.165	13328.03
250.235	13323.55
250.306	13333.58
250.377	13299.25
250.448	13327.31
250.519	13262.04
250.59	13323.79
250.66	13322.15
250.731	13402.99
250.802	13402.8
250.873	13431.24
250.944	13449.8
251.014	13447.29
251.085	13540.76
251.156	13572.34
251.227	13630.57
251.297	13687.11
251.368	13748.96
251.439	13798.33
251.51	13854.05
251.58	13844.12
251.651	13842.96
251.722	13900.76
251.792	13848.84
251.863	13856.46
251.934	13928.82
252.005	14053.14
252.075	14066.98
252.146	14125.06
252.217	14186.72
252.287	14233
252.358	14239.5
252.429	14320.97
252.499	14309.93
252.57	14325.02
252.641	14379.01
252.711	14377.56
252.782	14329.98
252.852	14411.35
252.923	14408.22
252.994	14421.96
253.064	14476.09
253.135	14454.64
253.205	14431.6
253.276	14511.09
253.347	14577.76
253.417	14549.32
253.488	14525.07
253.558	14510.18
253.629	14507.72
253.699	14519.38
253.77	14541.22
253.841	14531.67
253.911	14546.91
253.982	14569.27
254.052	14597.95
254.123	14605.14
254.193	14614.44
254.264	14762.56
254.334	14724.29
254.405	14691.9
254.475	14659.26
254.546	14667.89
254.616	14733.88
254.687	14769.75
254.757	14799.73
254.827	14807.78
254.898	14840.42
254.968	14845.19
255.039	14825.71
255.109	14872.76
255.18	14842.54
255.25	14772.3
255.321	14814.72
255.391	14768.26
255.461	14858.3
255.532	14763.58
255.602	14757.9
255.673	14702.46
255.743	14662.46
255.813	14590.82
255.884	14642.06
255.954	14679.52
256.024	14747.53
256.095	14750.67
256.165	14712.44
256.235	14728.97
256.306	14706.8
256.376	14755.1
256.446	14806.19
256.517	14847.46
256.587	14888.96
256.657	14918.12
256.728	14946.85
256.798	14953.89
256.868	14951
256.938	14923.76
257.009	14976.74
257.079	15010.43
257.149	15113.93
257.219	15047.6
257.29	15089.59
257.36	15034.68
257.43	15079.36
257.5	15013.09
257.571	15011.01
257.641	15050.97
257.711	15012.85
257.781	15054.59
257.852	15073.73
257.922	15001.33
257.992	15004.51
258.062	14996.84
258.132	15031.6
258.202	15040.37
258.273	15055.07
258.343	15132.68
258.413	15123.18
258.483	15128.72
258.553	15102.6
258.623	15081.63
258.693	15126.7
258.764	15203.78
258.834	15281.72
258.904	15300.62
258.974	15296.95
259.044	15303.03
259.114	15335.61
259.184	15367.95
259.254	15374.17
259.324	15313.63
259.394	15368.2
259.464	15453.42
259.535	15458.62
259.605	15455.68
259.675	15445.75
259.745	15485.52
259.815	15466.04
259.885	15459.05
259.955	15590.92
260.025	15579.01
260.095	15584.65
260.165	15616.41
260.235	15679.7
260.305	15660.51
260.375	15625.66
260.445	15716.72
260.515	15791.43
260.585	15836.06
260.655	15854.86
260.725	15908.21
260.795	15954.82
260.865	16029.24
260.934	15996.95
261.004	16031.6
261.074	16038.11
261.144	16109.98
261.214	16144.83
261.284	16141.84
261.354	16197.22
261.424	16146.38
261.494	16227.55
261.564	16231.5
261.634	16262.64
261.703	16195.02
261.773	16230.98
261.843	16271.03
261.913	16262.4
261.983	16197.53
262.053	16224.52
262.123	16209.14
262.192	16166.97
262.262	16214.49
262.332	16164.8
262.402	16197.47
262.472	16206.92
262.541	16142.19
