Data from 20250701_urea_2M_exp3_MAYP1162681_06-39-48-578.txt Node
Date: Wed Jul 02 06:39:48 BST 2025
User: adleo
Spectrometer: MAYP116268
Trigger mode: 0
Integration Time (sec): 4.000000E0
Scans to average: 1
Electric dark correction enabled: true
Nonlinearity correction enabled: true
Boxcar width: 10
XAxis mode: Wavelengths
Number of Pixels in Spectrum: 2068
>>>>>Begin Spectral Data<<<<<
179.565	3716.47
179.642	3903.06
179.718	4055.22
179.795	4184.91
179.871	4299.93
179.948	4363.2
180.024	4433.47
180.101	4517.13
180.177	4569.41
180.254	4648.54
180.33	4725.03
180.407	4994.06
180.483	5286.96
180.56	5581.38
180.636	5848.87
180.712	5804.52
180.789	5841.8
180.865	5887.82
180.942	5912.28
181.018	5952.62
181.095	5997.45
181.171	6017.56
181.248	6022.64
181.324	6076.22
181.4	6102.9
181.477	6135.92
181.553	6182.35
181.63	6253.05
181.706	6303.41
181.782	6331.37
181.859	6331.03
181.935	6351.73
182.011	6338.81
182.088	6388.94
182.164	6460.23
182.24	6509.95
182.317	6542.63
182.393	6537.64
182.469	6589.06
182.546	6642.07
182.622	6656.57
182.698	6640.91
182.775	6678.13
182.851	6729.12
182.927	6704.39
183.003	6691.72
183.08	6677.84
183.156	6703.63
183.232	6696.85
183.308	6657
183.385	6684.36
183.461	6739.59
183.537	6741.03
183.613	6783.87
183.69	6752.56
183.766	6708.2
183.842	6728.28
183.918	6743.74
183.995	6787.45
184.071	6796.29
184.147	6775.97
184.223	6739.78
184.299	6784.61
184.375	6745.52
184.452	6766.33
184.528	6892.9
184.604	6928.48
184.68	6963.1
184.756	6995.44
184.832	7010.1
184.908	7029.54
184.985	7027.71
185.061	6975.36
185.137	7008.13
185.213	6963.56
185.289	6972.59
185.365	6949.59
185.441	6946.08
185.517	6994.15
185.593	6980.51
185.669	6968.88
185.745	7002.7
185.822	7054.26
185.898	7022.79
185.974	7061.25
186.05	7034.57
186.126	6952.98
186.202	6929.93
186.278	6922.09
186.354	6887.74
186.43	6911.96
186.506	6908.32
186.582	6907.16
186.658	6929.73
186.734	6860.38
186.81	6875.07
186.886	6887.46
186.962	6927.66
187.038	6916.42
187.114	6892.09
187.19	6917.61
187.266	6886.05
187.341	6884.13
187.417	6864.44
187.493	6864.73
187.569	6875.54
187.645	6854.16
187.721	6821.11
187.797	6847.28
187.873	6857.71
187.949	6837.01
188.025	6811.1
188.101	6817.97
188.176	6830.02
188.252	6816.15
188.328	6841.77
188.404	6842.21
188.48	6820.5
188.556	6798.55
188.632	6797.49
188.707	6798.11
188.783	6787.35
188.859	6769.21
188.935	6734.18
189.011	6761.71
189.086	6739.91
189.162	6704.5
189.238	6697.97
189.314	6684.43
189.39	6667.14
189.465	6649.03
189.541	6705.82
189.617	6655.49
189.693	6640.03
189.768	6658.34
189.844	6743.84
189.92	6718.11
189.996	6749.19
190.071	6784.16
190.147	6780.36
190.223	6809.1
190.298	6780.75
190.374	6731.33
190.45	6776.07
190.526	6801.29
190.601	6779.73
190.677	6791.68
190.753	6889.26
190.828	6905.78
190.904	6957.62
190.98	7010.29
191.055	7045.17
191.131	7013.12
191.207	7087.1
191.282	7115.67
191.358	7084.35
191.433	7033.28
191.509	7073.7
191.585	7062.17
191.66	7067.22
191.736	7090.13
191.811	7066.1
191.887	7121.14
191.963	7211.42
192.038	7225.6
192.114	7229.68
192.189	7246.93
192.265	7230.8
192.34	7157.85
192.416	7146.61
192.491	7135.89
192.567	7138.73
192.642	7142.29
192.718	7143.63
192.793	7097.55
192.869	7087.08
192.944	7089.14
193.02	7114.62
193.095	7128.74
193.171	7149.79
193.246	7147.53
193.322	7140.61
193.397	7135.18
193.473	7087.35
193.548	7024.82
193.624	7044.14
193.699	7034.05
193.775	7085.21
193.85	7090.39
193.925	7116.68
194.001	7119.42
194.076	7093.76
194.152	7060.64
194.227	7037.91
194.302	7004.78
194.378	7018.47
194.453	7010.16
194.529	7056.58
194.604	7008.71
194.679	6990.75
194.755	6923.51
194.83	6968.13
194.905	6964.34
194.981	6995.28
195.056	6974.58
195.131	6990.05
195.207	6982.79
195.282	6954.26
195.357	6886.68
195.433	6940.05
195.508	6899.88
195.583	6923.18
195.659	6970.23
195.734	6994.98
195.809	6988.45
195.884	7024.42
195.96	7029.08
196.035	7079.72
196.11	7061.64
196.185	7098.06
196.261	7110.94
196.336	7215.49
196.411	7165.1
196.486	7182.97
196.561	7160.01
196.637	7186.09
196.712	7239.41
196.787	7249.45
196.862	7303.41
196.937	7338.44
197.013	7355.22
197.088	7390.29
197.163	7466.71
197.238	7527.87
197.313	7525.85
197.388	7573.63
197.464	7672.81
197.539	7705.74
197.614	7682.57
197.689	7728.44
197.764	7783.56
197.839	7852.32
197.914	7834.62
197.989	7906.23
198.065	7952.77
198.14	8128.62
198.215	8219.29
198.29	8257.83
198.365	8305.85
198.44	8344.9
198.515	8437.86
198.59	8487.38
198.665	8580.19
198.74	8604.12
198.815	8609.7
198.89	8683.65
198.965	8787.34
199.04	8774.34
199.115	8828.67
199.19	8972.26
199.265	8979.04
199.34	9010
199.415	9124.08
199.49	9196.75
199.565	9234.15
199.64	9316.77
199.715	9304.77
199.79	9330
199.865	9357.01
199.94	9348.59
200.015	9447.06
200.09	9466.42
200.165	9491.94
200.24	9513.37
200.315	9647.07
200.39	9695.38
200.464	9716.62
200.539	9721.53
200.614	9774.83
200.689	9850.69
200.764	9870.06
200.839	9933.36
200.914	9953.01
200.989	9911.04
201.063	9958.1
201.138	9896.16
201.213	9894.14
201.288	9822.33
201.363	9839.57
201.438	9837.31
201.512	9890.41
201.587	9840.6
201.662	9851.11
201.737	9888.48
201.812	9914.59
201.886	9799.62
201.961	9825.06
202.036	9788.9
202.111	9775.03
202.186	9676.12
202.26	9619.23
202.335	9547.76
202.41	9520.64
202.485	9459.89
202.559	9396.77
202.634	9303.07
202.709	9339.4
202.784	9274.83
202.858	9278.83
202.933	9215.9
203.008	9193.32
203.082	9128.76
203.157	9118.12
203.232	8973.63
203.306	8904.86
203.381	8793.45
203.456	8714.85
203.53	8641.83
203.605	8571.89
203.68	8491.69
203.754	8467.65
203.829	8419.51
203.904	8347.83
203.978	8312.74
204.053	8332.09
204.127	8288.26
204.202	8287.97
204.277	8223.18
204.351	8198.64
204.426	8172.31
204.5	8145.47
204.575	8032.31
204.65	8067.21
204.724	8040.15
204.799	8068.36
204.873	8053.11
204.948	8050.61
205.022	8013.92
205.097	7981.34
205.171	8026.73
205.246	8056.04
205.32	8054.12
205.395	8047.67
205.469	8017.68
205.544	8037.42
205.618	7981.47
205.693	8021.59
205.767	7976.91
205.842	8051.96
205.916	8033.3
205.991	8004.34
206.065	8022.96
206.14	8073.56
206.214	8052.14
206.289	8025.1
206.363	8064.54
206.438	8072.43
206.512	8095.48
206.586	8164.2
206.661	8192.7
206.735	8118.38
206.81	8118.86
206.884	8169.69
206.958	8129.15
207.033	8194.78
207.107	8218.22
207.181	8315.48
207.256	8293.92
207.33	8354.39
207.405	8393.68
207.479	8461.09
207.553	8480.43
207.628	8418.73
207.702	8455.82
207.776	8433.59
207.851	8444.47
207.925	8492.55
207.999	8484.04
208.073	8476.63
208.148	8479.71
208.222	8439.28
208.296	8549.12
208.371	8602.57
208.445	8633.27
208.519	8729.45
208.593	8765.69
208.668	8747.64
208.742	8760.69
208.816	8769.64
208.89	8812.97
208.965	8807.72
209.039	8825.25
209.113	8883.29
209.187	8957.98
209.261	8944.55
209.336	9013.19
209.41	9086.08
209.484	9088.63
209.558	9155.26
209.632	9200.94
209.707	9242.92
209.781	9313.79
209.855	9364.11
209.929	9419.62
210.003	9445.43
210.077	9439.79
210.151	9601.63
210.226	9719.89
210.3	9810.15
210.374	9889.73
210.448	9911.4
210.522	9947.77
210.596	9990.21
210.67	10029.99
210.744	10179.56
210.818	10285.69
210.892	10356.75
210.966	10336.9
211.041	10392.64
211.115	10386.47
211.189	10470.15
211.263	10517.36
211.337	10543.47
211.411	10595.79
211.485	10578.4
211.559	10614.72
211.633	10624.01
211.707	10520.34
211.781	10542.95
211.855	10415.62
211.929	10387.49
212.003	10319.26
212.077	10351.83
212.151	10388.12
212.225	10417.07
212.299	10386.42
212.373	10349.71
212.447	10334.58
212.52	10427.86
212.594	10434.41
212.668	10467.55
212.742	10412.29
212.816	10395.04
212.89	10370.76
212.964	10356.4
213.038	10365.51
213.112	10403.82
213.186	10448.71
213.26	10363.05
213.333	10201.44
213.407	10214.78
213.481	10210.64
213.555	10253.44
213.629	10201.3
213.703	10131.25
213.777	10110.39
213.85	10033.74
213.924	10133.82
213.998	10120.76
214.072	10087.56
214.146	10030.32
214.219	10011.2
214.293	9987.12
214.367	9979.46
214.441	10001.28
214.515	9954.35
214.588	9858.93
214.662	9726.64
214.736	9650.12
214.81	9663.21
214.883	9679.09
214.957	9632.92
215.031	9580.27
215.105	9477.21
215.178	9414.99
215.252	9378.3
215.326	9280.22
215.4	9200.66
215.473	9018.28
215.547	8931.69
215.621	8862.71
215.694	8857.03
215.768	8758.16
215.842	8690.87
215.915	8616.63
215.989	8495.9
216.063	8429.27
216.136	8402.17
216.21	8383.7
216.284	8388.61
216.357	8367.92
216.431	8323.7
216.504	8319.32
216.578	8372.46
216.652	8384.24
216.725	8362.92
216.799	8370.43
216.873	8352.05
216.946	8353.83
217.02	8318.3
217.093	8286.74
217.167	8188.89
217.24	8105.78
217.314	8067.85
217.387	8021.6
217.461	7979.9
217.535	8006.64
217.608	7950.47
217.682	7926.03
217.755	7938.54
217.829	7877.63
217.902	7857.43
217.976	7842.57
218.049	7797.84
218.123	7719.65
218.196	7718.21
218.27	7681.17
218.343	7606.22
218.417	7601.41
218.49	7580.49
218.563	7623.48
218.637	7626.56
218.71	7695.81
218.784	7725.44
218.857	7757.65
218.931	7779.9
219.004	7786.63
219.077	7809.73
219.151	7827.33
219.224	7817.52
219.298	7804.63
219.371	7851.62
219.444	7810.52
219.518	7816.68
219.591	7828.89
219.665	7934.53
219.738	7951.51
219.811	7930.7
219.885	7981.73
219.958	8014.2
220.031	8015.3
220.105	8037.92
220.178	8044.32
220.251	8024.2
220.325	8047.16
220.398	8070.63
220.471	8098.09
220.544	8135.71
220.618	8107.22
220.691	8132.86
220.764	8151.9
220.838	8186.25
220.911	8174.85
220.984	8263.92
221.057	8301.82
221.131	8324.62
221.204	8226.19
221.277	8294.48
221.35	8419.25
221.424	8409.14
221.497	8420.21
221.57	8445.79
221.643	8471.93
221.716	8523.28
221.79	8522.27
221.863	8532.29
221.936	8541.52
222.009	8549.89
222.082	8580.07
222.155	8591.09
222.229	8657.47
222.302	8690.58
222.375	8694.62
222.448	8735.53
222.521	8740.44
222.594	8742.66
222.667	8721.74
222.74	8783.66
222.814	8777.98
222.887	8759.49
222.96	8813.3
223.033	8856.35
223.106	8881.46
223.179	8909.59
223.252	8924.37
223.325	8959.6
223.398	8969.9
223.471	8994.16
223.544	9019.85
223.617	9031.99
223.69	9053.45
223.763	9017.2
223.837	9036.93
223.91	9067.26
223.983	9014.52
224.056	8983.57
224.129	9006.38
224.202	9064.5
224.275	9040.39
224.348	9008.91
224.42	8972.95
224.493	8917.3
224.566	8888.94
224.639	8914.6
224.712	8885.13
224.785	8868.56
224.858	8858.16
224.931	8842.61
225.004	8804.74
225.077	8797.9
225.15	8708.84
225.223	8709.46
225.296	8791.24
225.369	8735.03
225.442	8697.53
225.514	8714.23
225.587	8728.85
225.66	8736.7
225.733	8732.66
225.806	8759.04
225.879	8754.71
225.952	8722.81
226.025	8763.62
226.097	8814.81
226.17	8803.98
226.243	8743.35
226.316	8736.37
226.389	8739.79
226.461	8764.39
226.534	8783.64
226.607	8777.53
226.68	8863.32
226.753	8862.79
226.825	8775.33
226.898	8833.85
226.971	8839
227.044	8861.14
227.117	8873.7
227.189	8888.97
227.262	8925.85
227.335	8933.55
227.407	8928.02
227.48	8961.99
227.553	8982.02
227.626	8961.26
227.698	8967.56
227.771	9013.46
227.844	8994.45
227.916	9010.53
227.989	8971.87
228.062	8971.68
228.134	9060.13
228.207	9055.7
228.28	9041.6
228.352	9055.61
228.425	9062.98
228.498	9109.05
228.57	9094.28
228.643	9148.79
228.716	9150.76
228.788	9143.44
228.861	9142
228.934	9206.51
229.006	9218.54
229.079	9215.85
229.151	9200.77
229.224	9163.72
229.296	9186.2
229.369	9289.07
229.442	9342.53
229.514	9319.82
229.587	9361.03
229.659	9282.44
229.732	9293.61
229.804	9340.31
229.877	9424.99
229.949	9458.12
230.022	9519.26
230.094	9514.98
230.167	9501.06
230.239	9457.63
230.312	9437.7
230.384	9509.52
230.457	9501.67
230.529	9511.44
230.602	9514.96
230.674	9528.25
230.747	9577.63
230.819	9610.76
230.892	9492.59
230.964	9489.99
231.037	9526.85
231.109	9519.34
231.181	9562.38
231.254	9536.62
231.326	9519.86
231.399	9490.33
231.471	9460.61
231.544	9376.02
231.616	9426.57
231.688	9439.43
231.761	9429.57
231.833	9421
231.905	9335.79
231.978	9331.12
232.05	9320.53
232.122	9326.55
232.195	9301.17
232.267	9333.29
232.339	9313.26
232.412	9380.51
232.484	9358.93
232.556	9329.24
232.629	9402.51
232.701	9417.73
232.773	9427.4
232.846	9421.19
232.918	9429.86
232.99	9445.9
233.062	9489.97
233.135	9505
233.207	9462.52
233.279	9509.5
233.351	9547.49
233.424	9549.85
233.496	9537.28
233.568	9617.09
233.64	9577.8
233.713	9602.93
233.785	9592.72
233.857	9605
233.929	9553
234.001	9617.42
234.074	9686.31
234.146	9614.34
234.218	9613.52
234.29	9614.53
234.362	9602.16
234.434	9559.92
234.507	9527.41
234.579	9472.95
234.651	9448.34
234.723	9487.49
234.795	9501.26
234.867	9494.66
234.939	9558.48
235.012	9574.27
235.084	9576.39
235.156	9616.6
235.228	9592.81
235.3	9585.15
235.372	9594.01
235.444	9657.53
235.516	9578.37
235.588	9587.86
235.66	9603.32
235.732	9579.19
235.804	9780.86
235.876	9824.67
235.948	9886.96
236.02	9901.5
236.092	9915.08
236.164	9931.07
236.236	9933.19
236.308	9938.63
236.38	9975.24
236.452	9954.96
236.524	9971.86
236.596	10040.06
236.668	10072.23
236.74	10100.5
236.812	10127.76
236.884	10158.98
236.956	10169.44
237.028	10168.38
237.1	10150.17
237.172	10222.39
237.244	10294.41
237.316	10170.29
237.388	10153.97
237.46	10130.84
237.532	10187.83
237.604	10183.83
237.675	10262.03
237.747	10302.07
237.819	10285.06
237.891	10273.79
237.963	10261.65
238.035	10262.47
238.107	10145.67
238.178	10208.51
238.25	10214.48
238.322	10307.44
238.394	10258.11
238.466	10263.12
238.538	10304.69
238.609	10357.73
238.681	10305.21
238.753	10283.62
238.825	10302.8
238.897	10337.72
238.968	10416.42
239.04	10405.63
239.112	10522.4
239.184	10476.19
239.255	10470.65
239.327	10518.72
239.399	10548.02
239.471	10601.11
239.542	10633.67
239.614	10706.18
239.686	10625.76
239.758	10686.71
239.829	10647.96
239.901	10725.33
239.973	10742.92
240.044	10781.08
240.116	10786.57
240.188	10799.87
240.259	10820.49
240.331	10808.73
240.403	10848.72
240.474	10797.25
240.546	10793.15
240.618	10728.68
240.689	10729.59
240.761	10755.33
240.833	10819.23
240.904	10814.51
240.976	10815.18
241.048	10834.99
241.119	10873.11
241.191	10922.54
241.262	10988.05
241.334	10998.75
241.405	11001.98
241.477	10997.78
241.549	10997.83
241.62	11028.48
241.692	11074.79
241.763	11137.16
241.835	11164.29
241.906	11174.36
241.978	11155.52
242.049	11219.32
242.121	11286.84
242.192	11358.21
242.264	11319.37
242.335	11261.78
242.407	11313.78
242.478	11310.11
242.55	11336.28
242.621	11320.91
242.693	11314.93
242.764	11299.84
242.836	11298.4
242.907	11326.64
242.979	11368.95
243.05	11394.54
243.122	11408.04
243.193	11404.04
243.264	11330.45
243.336	11328.23
243.407	11366.3
243.479	11441.73
243.55	11461.01
243.622	11478.07
243.693	11478.7
243.764	11557.78
243.836	11536.87
243.907	11528.44
243.978	11537.06
244.05	11554.8
244.121	11511.33
244.192	11562.66
244.264	11512.15
244.335	11529.4
244.407	11482.32
244.478	11497.55
244.549	11490.27
244.62	11453.59
244.692	11455.95
244.763	11508.73
244.834	11504.19
244.906	11493.35
244.977	11515.04
245.048	11567.05
245.119	11537.36
245.191	11512.01
245.262	11438.81
245.333	11521.69
245.405	11540.49
245.476	11575.86
245.547	11594.52
245.618	11650.81
245.689	11660.21
245.761	11698.96
245.832	11699.87
245.903	11751.88
245.974	11783.59
246.045	11798.97
246.117	11878.21
246.188	11863.89
246.259	11839.99
246.33	11857.92
246.401	11860.33
246.473	11823.55
246.544	11808.56
246.615	11874.21
246.686	11886.4
246.757	11964.67
246.828	11941.63
246.899	12017.41
246.97	11989.02
247.042	11985.74
247.113	12026.04
247.184	12117.87
247.255	12115.08
247.326	12145.25
247.397	12154.65
247.468	12156.19
247.539	12172.49
247.61	12133.1
247.681	12180.24
247.752	12244.39
247.823	12219.33
247.894	12236.54
247.965	12213.79
248.037	12193.4
248.108	12135.99
248.179	12138.26
248.25	12133
248.321	12161.25
248.392	12106.49
248.463	12185.77
248.534	12182.59
248.605	12201.35
248.675	12170.88
248.746	12193.63
248.817	12215.95
248.888	12231.57
248.959	12179.22
249.03	12207.08
249.101	12215.47
249.172	12203.66
249.243	12119.17
249.314	12190.46
249.385	12194.27
249.456	12226.75
249.527	12230.56
249.598	12254.85
249.669	12255.58
249.739	12271
249.81	12289.9
249.881	12251.29
249.952	12252.69
250.023	12251.19
250.094	12201.06
250.165	12173.53
250.235	12175.12
250.306	12173.87
250.377	12140.18
250.448	12172.28
250.519	12104.12
250.59	12169.25
250.66	12166.84
250.731	12242.41
250.802	12232.09
250.873	12255.62
250.944	12277.4
251.014	12274.03
251.085	12374.88
251.156	12398.01
251.227	12449.93
251.297	12501.75
251.368	12558.29
251.439	12594.16
251.51	12653.11
251.58	12639.38
251.651	12631.42
251.722	12681.22
251.792	12633.06
251.863	12638.37
251.934	12701.08
252.005	12817.64
252.075	12819.56
252.146	12870.13
252.217	12919.39
252.287	12970.93
252.358	12977.92
252.429	13058.66
252.499	13048.49
252.57	13055.43
252.641	13109.04
252.711	13121.47
252.782	13081.66
252.852	13159.51
252.923	13158.11
252.994	13167.03
253.064	13219.76
253.135	13197.11
253.205	13173.53
253.276	13252.73
253.347	13322.68
253.417	13295.15
253.488	13279.34
253.558	13262.66
253.629	13260.2
253.699	13275.44
253.77	13298.09
253.841	13297.47
253.911	13303.88
253.982	13324.8
254.052	13350.01
254.123	13359.12
254.193	13351.17
254.264	13480.41
254.334	13439.58
254.405	13405.35
254.475	13374.74
254.546	13385.49
254.616	13450.57
254.687	13478.62
254.757	13497.52
254.827	13495.69
254.898	13516.61
254.968	13523.79
255.039	13507.55
255.109	13548.23
255.18	13520.9
255.25	13456.59
255.321	13490.05
255.391	13446.71
255.461	13536.08
255.532	13446.85
255.602	13432.73
255.673	13379.56
255.743	13347.31
255.813	13279.29
255.884	13329.62
255.954	13365.29
256.024	13425.79
256.095	13438.52
256.165	13408.87
256.235	13427.72
256.306	13407.57
256.376	13457.27
256.446	13497.62
256.517	13530.64
256.587	13569.88
256.657	13589.45
256.728	13604.88
256.798	13618.91
256.868	13617.75
256.938	13577.88
257.009	13627.39
257.079	13667.79
257.149	13780.35
257.219	13712.23
257.29	13754.27
257.36	13700.9
257.43	13732.96
257.5	13668.46
257.571	13650.14
257.641	13687.94
257.711	13653.47
257.781	13686.68
257.852	13701.48
257.922	13640.31
257.992	13643.63
258.062	13642.77
258.132	13691.55
258.202	13703.55
258.273	13710.4
258.343	13785.94
258.413	13779.43
258.483	13789.26
258.553	13754.36
258.623	13717.29
258.693	13759.47
258.764	13828.7
258.834	13898.02
258.904	13910.6
258.974	13904.53
259.044	13916.1
259.114	13944.63
259.184	13979.58
259.254	13992.6
259.324	13948.15
259.394	13991.15
259.464	14083.22
259.535	14091.61
259.605	14084.53
259.675	14074.16
259.745	14107.33
259.815	14082.12
259.885	14083.03
259.955	14200.26
260.025	14199.15
260.095	14214.33
260.165	14243.35
260.235	14296.71
260.305	14276.95
260.375	14254.63
260.445	14342.22
260.515	14407.97
260.585	14450.1
260.655	14455.5
260.725	14497.68
260.795	14534.13
260.865	14602.96
260.934	14565.84
261.004	14587.34
261.074	14592.74
261.144	14656.76
261.214	14687.61
261.284	14686.26
261.354	14724.49
261.424	14675.18
261.494	14743.06
261.564	14747.39
261.634	14768.36
261.703	14708.4
261.773	14731.92
261.843	14767.26
261.913	14761.71
261.983	14709.51
262.053	14740.36
262.123	14733.9
262.192	14697.07
262.262	14736.11
262.332	14689.16
262.402	14724.45
262.472	14737.9
262.541	14673.16
262.611	14720.97
262.681	14696.68
262.751	14734.23
262.821	14740.06
262.89	14706.56
262.96	14730.71
263.03	14814.34
263.1	14838.54
