Data from 20250701_urea_2M_exp3_MAYP1162681_20-59-51-385.txt Node
Date: Tue Jul 01 20:59:51 BST 2025
User: adleo
Spectrometer: MAYP116268
Trigger mode: 0
Integration Time (sec): 4.000000E0
Scans to average: 1
Electric dark correction enabled: true
Nonlinearity correction enabled: true
Boxcar width: 10
XAxis mode: Wavelengths
Number of Pixels in Spectrum: 2068
>>>>>Begin Spectral Data<<<<<
179.565	3933.6
179.642	4142.58
179.718	4301.73
179.795	4445.05
179.871	4565.84
179.948	4628.65
180.024	4701.55
180.101	4785.55
180.177	4844.64
180.254	4933.8
180.33	5018.07
180.407	5307.65
180.483	5614.94
180.56	5924.59
180.636	6207.32
180.712	6166.7
180.789	6195.21
180.865	6236.5
180.942	6266.25
181.018	6308.73
181.095	6356.38
181.171	6374.76
181.248	6376.25
181.324	6433.26
181.4	6457.8
181.477	6497.47
181.553	6547.18
181.63	6620.79
181.706	6681.7
181.782	6703.58
181.859	6698.83
181.935	6715.26
182.011	6700.85
182.088	6753.3
182.164	6822.89
182.24	6876.14
182.317	6907.01
182.393	6905.14
182.469	6960.62
182.546	7013.85
182.622	7030.04
182.698	7019.99
182.775	7064.43
182.851	7114.59
182.927	7091
183.003	7076.73
183.08	7057.18
183.156	7093.17
183.232	7083.32
183.308	7037.38
183.385	7072.11
183.461	7134.63
183.537	7141.12
183.613	7183.83
183.69	7154.43
183.766	7119.23
183.842	7137.97
183.918	7157.53
183.995	7205.63
184.071	7215.87
184.147	7194.43
184.223	7155.39
184.299	7194.57
184.375	7155.41
184.452	7179.12
184.528	7308.48
184.604	7345.62
184.68	7385.4
184.756	7409.54
184.832	7427.47
184.908	7446.58
184.985	7440.48
185.061	7381.13
185.137	7410.31
185.213	7369.42
185.289	7376.62
185.365	7349.53
185.441	7346.02
185.517	7395.99
185.593	7380.07
185.669	7371.47
185.745	7407.18
185.822	7461.99
185.898	7429.11
185.974	7462.02
186.05	7434.85
186.126	7355.14
186.202	7332.12
186.278	7319.05
186.354	7284.97
186.43	7304.2
186.506	7296.52
186.582	7295.55
186.658	7314.72
186.734	7238.47
186.81	7253.85
186.886	7267.25
186.962	7309.63
187.038	7299.01
187.114	7270.06
187.19	7294.38
187.266	7257.48
187.341	7258.25
187.417	7230.04
187.493	7233.74
187.569	7244.85
187.645	7225.38
187.721	7185.86
187.797	7213.11
187.873	7225.46
187.949	7206.29
188.025	7185.42
188.101	7196.09
188.176	7215.21
188.252	7202.15
188.328	7232.88
188.404	7231.63
188.48	7210.77
188.556	7188.86
188.632	7186.65
188.707	7188.43
188.783	7186.26
188.859	7173.49
188.935	7130.37
189.011	7158.44
189.086	7135.9
189.162	7106.25
189.238	7094.1
189.314	7086.79
189.39	7066.9
189.465	7042.53
189.541	7099.15
189.617	7043.57
189.693	7024.98
189.768	7035.22
189.844	7123.64
189.92	7099.15
189.996	7127.75
190.071	7169.27
190.147	7161.77
190.223	7193.45
190.298	7162.25
190.374	7112.37
190.45	7151.37
190.526	7182.52
190.601	7164.78
190.677	7164.45
190.753	7264.15
190.828	7282.5
190.904	7332.83
190.98	7385.24
191.055	7428.84
191.131	7392.87
191.207	7473.8
191.282	7506.04
191.358	7471.39
191.433	7415.31
191.509	7464.16
191.585	7451.51
191.66	7451.03
191.736	7484.44
191.811	7451.22
191.887	7510.9
191.963	7599.07
192.038	7622.24
192.114	7628.88
192.189	7643.58
192.265	7639.5
192.34	7558.35
192.416	7548.16
192.491	7533.92
192.567	7542.54
192.642	7543.59
192.718	7551.43
192.793	7507.19
192.869	7496.19
192.944	7510.94
193.02	7543.2
193.095	7558.83
193.171	7582.24
193.246	7584.7
193.322	7578.4
193.397	7583.15
193.473	7532.03
193.548	7455.44
193.624	7471.98
193.699	7466.02
193.775	7524.31
193.85	7530.8
193.925	7568.45
194.001	7569.89
194.076	7542.97
194.152	7508.96
194.227	7485.4
194.302	7445.39
194.378	7454.28
194.453	7442.84
194.529	7483.95
194.604	7434.62
194.679	7407.7
194.755	7337.22
194.83	7382.68
194.905	7367.44
194.981	7402.34
195.056	7385.14
195.131	7412.58
195.207	7405.22
195.282	7366.87
195.357	7299.26
195.433	7352.23
195.508	7304.58
195.583	7330.25
195.659	7381.02
195.734	7400.26
195.809	7397.08
195.884	7431.77
195.96	7440.9
196.035	7495.89
196.11	7479.01
196.185	7519.05
196.261	7533.62
196.336	7647.36
196.411	7593
196.486	7612.32
196.561	7586.65
196.637	7614
196.712	7670.76
196.787	7682.69
196.862	7744.65
196.937	7780.22
197.013	7793.84
197.088	7831.19
197.163	7903.4
197.238	7963.67
197.313	7963.24
197.388	8010.61
197.464	8120.36
197.539	8150.27
197.614	8125.89
197.689	8167.5
197.764	8223.56
197.839	8291
197.914	8263
197.989	8342.63
198.065	8392.56
198.14	8572.81
198.215	8666.98
198.29	8707.47
198.365	8747.22
198.44	8781.72
198.515	8877.17
198.59	8935.37
198.665	9029.04
198.74	9057.06
198.815	9063.37
198.89	9143.7
198.965	9249.4
199.04	9222.92
199.115	9284.63
199.19	9438.04
199.265	9449.69
199.34	9491.59
199.415	9613.94
199.49	9692.02
199.565	9723.13
199.64	9801.53
199.715	9785.48
199.79	9808.12
199.865	9832.83
199.94	9833.64
200.015	9940.91
200.09	9961.72
200.165	9983.59
200.24	10003.77
200.315	10140.48
200.39	10196.46
200.464	10220.45
200.539	10230.47
200.614	10296.45
200.689	10381.68
200.764	10402.06
200.839	10471.7
200.914	10480.9
200.989	10438.4
201.063	10486.81
201.138	10426.24
201.213	10430.73
201.288	10366.65
201.363	10386.31
201.438	10385.39
201.512	10442.08
201.587	10388.5
201.662	10403.63
201.737	10449.59
201.812	10480.48
201.886	10367.03
201.961	10393.11
202.036	10352.07
202.111	10330.68
202.186	10230.29
202.26	10164.52
202.335	10084.11
202.41	10051.17
202.485	9988.56
202.559	9921.23
202.634	9824.95
202.709	9857.59
202.784	9782.36
202.858	9779.33
202.933	9713.78
203.008	9686.86
203.082	9614.67
203.157	9605.91
203.232	9448.36
203.306	9368.97
203.381	9254.4
203.456	9179.23
203.53	9098.77
203.605	9026.25
203.68	8952.52
203.754	8930.88
203.829	8882.92
203.904	8813.71
203.978	8775.67
204.053	8792.71
204.127	8750.27
204.202	8749.54
204.277	8685.49
204.351	8671.49
204.426	8646.88
204.5	8616.18
204.575	8496.68
204.65	8540.54
204.724	8513.53
204.799	8543.72
204.873	8530.82
204.948	8526.11
205.022	8482.14
205.097	8447.57
205.171	8495.82
205.246	8525.77
205.32	8521.49
205.395	8511.43
205.469	8485.37
205.544	8502.7
205.618	8440.81
205.693	8474.4
205.767	8433.02
205.842	8512.49
205.916	8488.19
205.991	8452.15
206.065	8471.2
206.14	8519.8
206.214	8491.39
206.289	8466.89
206.363	8509.38
206.438	8515.06
206.512	8542.16
206.586	8606.24
206.661	8635.42
206.735	8562.36
206.81	8560.53
206.884	8606.57
206.958	8567.51
207.033	8624.02
207.107	8652.48
207.181	8764.79
207.256	8746.41
207.33	8809.4
207.405	8849.67
207.479	8916.52
207.553	8945.44
207.628	8882.81
207.702	8929.39
207.776	8909.66
207.851	8922.6
207.925	8977.26
207.999	8967.2
208.073	8958.73
208.148	8968.64
208.222	8930.22
208.296	9043.05
208.371	9102.3
208.445	9148.43
208.519	9243.68
208.593	9283.88
208.668	9269.48
208.742	9279.6
208.816	9285.47
208.89	9336.67
208.965	9328.09
209.039	9351.74
209.113	9411.98
209.187	9490.59
209.261	9475.43
209.336	9547.56
209.41	9621.2
209.484	9625.73
209.558	9705.49
209.632	9752.58
209.707	9796.45
209.781	9874.85
209.855	9923.89
209.929	9979.89
210.003	9997.33
210.077	9989.62
210.151	10163.2
210.226	10284.38
210.3	10376.29
210.374	10458.78
210.448	10470.49
210.522	10507.25
210.596	10549.5
210.67	10580.1
210.744	10734.62
210.818	10853.34
210.892	10924.03
210.966	10896.29
211.041	10948.32
211.115	10931.99
211.189	11015.25
211.263	11071.87
211.337	11091.43
211.411	11142.56
211.485	11120.2
211.559	11161.15
211.633	11169.05
211.707	11055.06
211.781	11079.74
211.855	10950.6
211.929	10921.7
212.003	10854.55
212.077	10889.54
212.151	10928.29
212.225	10959.13
212.299	10927.32
212.373	10882.8
212.447	10859.42
212.52	10958.49
212.594	10968.37
212.668	11005.86
212.742	10952.61
212.816	10927.89
212.89	10904.42
212.964	10890.93
213.038	10893.29
213.112	10929.1
213.186	10981.81
213.26	10899.97
213.333	10730.28
213.407	10752.87
213.481	10752.92
213.555	10787.16
213.629	10738.05
213.703	10673
213.777	10657.82
213.85	10577.59
213.924	10679.71
213.998	10668.24
214.072	10633.05
214.146	10569.64
214.219	10551.96
214.293	10529.07
214.367	10515.48
214.441	10540.49
214.515	10494.71
214.588	10399.51
214.662	10267.37
214.736	10180.67
214.81	10196.51
214.883	10218.46
214.957	10163.13
215.031	10106.94
215.105	10007.89
215.178	9935.3
215.252	9894.55
215.326	9785.79
215.4	9700.15
215.473	9513.67
215.547	9429.66
215.621	9361
215.694	9353.3
215.768	9245.24
215.842	9166.04
215.915	9095.87
215.989	8974.85
216.063	8905.45
216.136	8880.32
216.21	8853.13
216.284	8861.41
216.357	8826.8
216.431	8775.24
216.504	8766.19
216.578	8824.16
216.652	8839.51
216.725	8816.16
216.799	8818.57
216.873	8807.35
216.946	8812.31
217.02	8772.2
217.093	8732.78
217.167	8629.25
217.24	8543.52
217.314	8505.57
217.387	8459.4
217.461	8411.42
217.535	8433.66
217.608	8369.86
217.682	8342.72
217.755	8355.95
217.829	8296.08
217.902	8284
217.976	8264.33
218.049	8215.59
218.123	8134.28
218.196	8130.34
218.27	8094.4
218.343	8018.41
218.417	8008.01
218.49	7984.49
218.563	8028.7
218.637	8039.67
218.71	8113.33
218.784	8139.27
218.857	8177.89
218.931	8205.44
219.004	8218.24
219.077	8238.94
219.151	8261.01
219.224	8251.49
219.298	8242.68
219.371	8292.1
219.444	8248.19
219.518	8263.3
219.591	8279.12
219.665	8385.14
219.738	8397.79
219.811	8378.99
219.885	8423.45
219.958	8454.34
220.031	8459.49
220.105	8486.39
220.178	8490.53
220.251	8464.2
220.325	8486.97
220.398	8498.67
220.471	8517.86
220.544	8551.11
220.618	8523.24
220.691	8551.01
220.764	8570.64
220.838	8603.9
220.911	8584.64
220.984	8679.81
221.057	8713.64
221.131	8741.31
221.204	8640.63
221.277	8714.72
221.35	8843.24
221.424	8835.54
221.497	8850.46
221.57	8875.62
221.643	8904.13
221.716	8958.63
221.79	8957
221.863	8974.19
221.936	8982.42
222.009	8995.46
222.082	9024.92
222.155	9034.12
222.229	9100.91
222.302	9133.73
222.375	9138.12
222.448	9178.75
222.521	9177.5
222.594	9179.52
222.667	9148.29
222.74	9206.73
222.814	9198.49
222.887	9181.49
222.96	9239.7
223.033	9278.95
223.106	9302.15
223.179	9329.75
223.252	9339.24
223.325	9377.32
223.398	9389.64
223.471	9426.24
223.544	9451.07
223.617	9466.58
223.69	9489.21
223.763	9448.75
223.837	9475.34
223.91	9503.36
223.983	9453.44
224.056	9419.31
224.129	9446.22
224.202	9510.33
224.275	9494.63
224.348	9464.01
224.42	9427.75
224.493	9373.05
224.566	9349.98
224.639	9375.11
224.712	9348.47
224.785	9333.11
224.858	9323.33
224.931	9301.42
225.004	9259.34
225.077	9253.66
225.15	9160.57
225.223	9159.56
225.296	9251.28
225.369	9191.44
225.442	9160.62
225.514	9184.83
225.587	9207.31
225.66	9208.9
225.733	9206.49
225.806	9217.08
225.879	9208.46
225.952	9174.82
226.025	9217.28
226.097	9274.51
226.17	9263.15
226.243	9194.84
226.316	9192.72
226.389	9200.18
226.461	9226.77
226.534	9246.12
226.607	9238.9
226.68	9325.44
226.753	9317.5
226.825	9222.98
226.898	9278.4
226.971	9278.44
227.044	9291.64
227.117	9298.09
227.189	9321.21
227.262	9358.68
227.335	9383.24
227.407	9379.92
227.48	9418.52
227.553	9437.84
227.626	9419.58
227.698	9424.49
227.771	9465.06
227.844	9438.34
227.916	9449.94
227.989	9411.75
228.062	9406.46
228.134	9504.47
228.207	9503.8
228.28	9498.55
228.352	9511.26
228.425	9523.21
228.498	9570.5
228.57	9549.32
228.643	9610.3
228.716	9604.91
228.788	9585.64
228.861	9576.53
228.934	9641.64
229.006	9645.68
229.079	9644.19
229.151	9622.42
229.224	9585.64
229.296	9615.69
229.369	9727.5
229.442	9779.77
229.514	9757.82
229.587	9812.33
229.659	9730.97
229.732	9745.9
229.804	9792.61
229.877	9883
229.949	9909.44
230.022	9976.95
230.094	9983.21
230.167	9968.42
230.239	9925.75
230.312	9918.24
230.384	9995.23
230.457	9989.93
230.529	10002.98
230.602	10002.36
230.674	10018.4
230.747	10068.9
230.819	10096.89
230.892	9968.81
230.964	9971.07
231.037	10006.5
231.109	9994.9
231.181	10036.55
231.254	9997.11
231.326	9982.8
231.399	9949.6
231.471	9920.17
231.544	9828.43
231.616	9878.9
231.688	9883.09
231.761	9879.38
231.833	9864.17
231.905	9774.85
231.978	9774.36
232.05	9755.87
232.122	9761.36
232.195	9732.85
232.267	9774.52
232.339	9752.74
232.412	9830.66
232.484	9806.62
232.556	9776.19
232.629	9848.47
232.701	9865.52
232.773	9881.07
232.846	9873.32
232.918	9884.21
232.99	9904.54
233.062	9948.71
233.135	9955.89
233.207	9921.74
233.279	9962.72
233.351	10004.86
233.424	10005.72
233.496	9984.82
233.568	10076.44
233.64	10041.33
233.713	10065.23
233.785	10055.88
233.857	10073.75
233.929	10015.81
234.001	10085.11
234.074	10156.42
234.146	10079.81
234.218	10072.11
234.29	10069.99
234.362	10052.89
234.434	10001.63
234.507	9967.91
234.579	9908.47
234.651	9890.31
234.723	9926.25
234.795	9943.64
234.867	9930.87
234.939	9993.45
235.012	10014.35
235.084	10015.08
235.156	10053.12
235.228	10022.44
235.3	10002.11
235.372	10014.69
235.444	10075.95
235.516	9994.71
235.588	9998.42
235.66	10016.68
235.732	9992.25
235.804	10196.16
235.876	10244.32
235.948	10308.4
236.02	10322.85
236.092	10343.41
236.164	10360.9
236.236	10358.1
236.308	10359.02
236.38	10394.77
236.452	10375.06
236.524	10391.05
236.596	10452.94
236.668	10486.76
236.74	10516.15
236.812	10548.71
236.884	10585.19
236.956	10595.16
237.028	10581.2
237.1	10563.9
237.172	10640.42
237.244	10726.58
237.316	10602.16
237.388	10588.72
237.46	10568.97
237.532	10637.19
237.604	10627.32
237.675	10701.34
237.747	10752.7
237.819	10736.81
237.891	10742.49
237.963	10736.47
238.035	10737.48
238.107	10625.2
238.178	10696.19
238.25	10703.13
238.322	10807.86
238.394	10752.3
238.466	10762.95
238.538	10812.04
238.609	10856.41
238.681	10794.92
238.753	10771.45
238.825	10796.42
238.897	10823.11
238.968	10911.4
239.04	10891.69
239.112	11017.65
239.184	10975.09
239.255	10972.11
239.327	11011.37
239.399	11036.81
239.471	11085.1
239.542	11123.4
239.614	11192.65
239.686	11095.3
239.758	11156.25
239.829	11108.34
239.901	11185.15
239.973	11195.22
240.044	11231.7
240.116	11244.09
240.188	11260.76
240.259	11273.92
240.331	11265.63
240.403	11308.03
240.474	11255.35
240.546	11241.76
240.618	11168.79
240.689	11169.66
240.761	11188.02
240.833	11258
240.904	11259.5
240.976	11260.03
241.048	11274.73
241.119	11317.14
241.191	11372.37
241.262	11441.39
241.334	11450.6
241.405	11448.43
241.477	11453.92
241.549	11466.89
241.62	11499.42
241.692	11551.18
241.763	11619.97
241.835	11643.54
241.906	11656.36
241.978	11630.24
242.049	11701.85
242.121	11773.81
242.192	11847.26
242.264	11810.53
242.335	11761.57
242.407	11807.69
242.478	11815.35
242.55	11835.74
242.621	11816.99
242.693	11814.92
242.764	11804.65
242.836	11810.53
242.907	11847.89
242.979	11883.22
243.05	11902.74
243.122	11927.42
243.193	11927.13
243.264	11848.51
243.336	11852.08
243.407	11894.35
243.479	11972.92
243.55	11983.33
243.622	11994.22
243.693	11993.36
243.764	12062.23
243.836	12044.83
243.907	12035.87
243.978	12035.1
244.05	12069.22
244.121	12025.22
244.192	12071.83
244.264	12018.42
244.335	12029.8
244.407	11979.43
244.478	12002.95
244.549	11995.87
244.62	11942.17
244.692	11936.92
244.763	11985.31
244.834	11970.8
244.906	11950.31
244.977	11977.79
245.048	12046.73
245.119	12026.05
245.191	12007.15
245.262	11944.78
245.333	12017.37
245.405	12030.57
245.476	12070.1
245.547	12087.98
245.618	12141.19
245.689	12153.82
245.761	12191.51
245.832	12195.95
245.903	12244.78
245.974	12269.26
246.045	12279.39
246.117	12372.61
246.188	12356.17
246.259	12335.74
246.33	12357.67
246.401	12367.65
246.473	12328.74
246.544	12305.8
246.615	12368.56
246.686	12369.33
246.757	12452.72
246.828	12430.59
246.899	12504.78
246.97	12468.78
247.042	12456.68
247.113	12500.21
247.184	12597.1
247.255	12586.54
247.326	12618.89
247.397	12628.05
247.468	12634.41
247.539	12656.44
247.61	12610.69
247.681	12669.69
247.752	12727.25
247.823	12698.71
247.894	12714.48
247.965	12683.14
248.037	12668.54
248.108	12608.28
248.179	12621.68
248.25	12613.15
248.321	12645.83
248.392	12600.08
248.463	12683.62
248.534	12679.04
248.605	12707.72
248.675	12677.02
248.746	12710.23
248.817	12725.32
248.888	12752.07
248.959	12705.36
249.03	12736.07
249.101	12749.23
249.172	12731.87
249.243	12654.37
249.314	12725.27
249.385	12738.53
249.456	12770.2
249.527	12769.77
249.598	12803.07
249.669	12801.97
249.739	12818.55
249.81	12837.59
249.881	12794.49
249.952	12795.65
250.023	12790.93
250.094	12730.81
250.165	12687.62
250.235	12679.62
250.306	12683.09
250.377	12634.5
250.448	12650.26
250.519	12578
250.59	12634.89
250.66	12626.45
250.731	12710.61
250.802	12710.95
250.873	12730.23
250.944	12762.72
251.014	12751.54
251.085	12842.07
251.156	12867.38
251.227	12923.01
251.297	12977.09
251.368	13032.05
251.439	13073.17
251.51	13126.19
251.58	13115.11
251.651	13125.95
251.722	13184.81
251.792	13131.84
251.863	13145.82
251.934	13214.36
252.005	13337.05
252.075	13348.28
252.146	13396.58
252.217	13447.73
252.287	13491.5
252.358	13496.03
252.429	13570.41
252.499	13560.24
252.57	13572.39
252.641	13624.74
252.711	13623.25
252.782	13575.04
252.852	13646.1
252.923	13644.41
252.994	13664.46
253.064	13723.22
253.135	13698.16
253.205	13675.16
253.276	13758.17
253.347	13827.11
253.417	13804.31
253.488	13773.55
253.558	13760.73
253.629	13766.9
253.699	13780.59
253.77	13807.63
253.841	13798.38
253.911	13805.03
253.982	13825.08
254.052	13848.85
254.123	13858.92
254.193	13869.24
254.264	14012.98
254.334	13985.12
254.405	13955.38
254.475	13921.87
254.546	13921.29
254.616	13990.71
254.687	14024.7
254.757	14042.82
254.827	14039.35
254.898	14066.97
254.968	14088.23
255.039	14065.38
255.109	14102.65
255.18	14071.22
255.25	13998.62
255.321	14038.24
255.391	13996.06
255.461	14097.01
255.532	14014.29
255.602	14008.12
255.673	13943.52
255.743	13907.85
255.813	13835.83
255.884	13883.65
255.954	13917.88
256.024	13988.07
256.095	13989.85
256.165	13954.37
256.235	13986.91
256.306	13976.78
256.376	14020.99
256.446	14059.31
256.517	14107.95
256.587	14152.68
256.657	14174.67
256.728	14201.08
256.798	14206.68
256.868	14200.84
256.938	14159.1
257.009	14204.56
257.079	14239.65
257.149	14344.11
257.219	14275.08
257.29	14317.79
257.36	14258.93
257.43	14301.26
257.5	14231.65
257.571	14220.03
257.641	14257.63
257.711	14216.46
257.781	14246.59
257.852	14263.08
257.922	14190.53
257.992	14187.25
258.062	14183.01
258.132	14224.51
258.202	14229.14
258.273	14241
258.343	14317.65
258.413	14309.4
258.483	14322.56
258.553	14280.29
258.623	14259.17
258.693	14289.45
258.764	14349.17
258.834	14414.88
258.904	14429.97
258.974	14419.46
259.044	14429.05
259.114	14459.42
259.184	14487.52
259.254	14495.48
259.324	14444.48
259.394	14492.49
259.464	14580.07
259.535	14587.45
259.605	14582.48
259.675	14576.75
259.745	14614.11
259.815	14589.09
259.885	14588.46
259.955	14701.3
260.025	14694.59
260.095	14705.01
260.165	14734.07
260.235	14811.63
260.305	14801.6
260.375	14772.01
260.445	14864.17
260.515	14930.26
260.585	14976.63
260.655	14982.99
260.725	15031.49
260.795	15069.18
260.865	15154.79
260.934	15115.84
261.004	15148.91
261.074	15148.43
261.144	15218.42
261.214	15255.44
261.284	15259.3
261.354	15303.16
261.424	15259.26
261.494	15334.65
261.564	15340.38
261.634	15374.08
261.703	15290.74
261.773	15323.52
261.843	15357.98
261.913	15359.43
261.983	15302.6
262.053	15328.19
262.123	15327.8
262.192	15286.35
262.262	15335.42
262.332	15274.78
262.402	15310.79
262.472	15317.54
262.541	15259.06
262.611	15296.71
262.681	15273.38
262.751	15310.59
262.821	15311.36
