Data from 20250701_urea_2M_exp3_MAYP1162681_20-19-51-565.txt Node
Date: Tue Jul 01 20:19:51 BST 2025
User: adleo
Spectrometer: MAYP116268
Trigger mode: 0
Integration Time (sec): 4.000000E0
Scans to average: 1
Electric dark correction enabled: true
Nonlinearity correction enabled: true
Boxcar width: 10
XAxis mode: Wavelengths
Number of Pixels in Spectrum: 2068
>>>>>Begin Spectral Data<<<<<
179.565	3984.11
179.642	4195.41
179.718	4350.62
179.795	4490.21
179.871	4607.03
179.948	4669.7
180.024	4744.9
180.101	4831.18
180.177	4882.55
180.254	4972.37
180.33	5057.52
180.407	5349.65
180.483	5658.33
180.56	5973.03
180.636	6260.7
180.712	6216.13
180.789	6250.6
180.865	6294.54
180.942	6326.02
181.018	6370.28
181.095	6418.89
181.171	6437.23
181.248	6435.88
181.324	6490.78
181.4	6523
181.477	6570.02
181.553	6625.16
181.63	6703.11
181.706	6759.7
181.782	6794.83
181.859	6789.84
181.935	6809.53
182.011	6795.56
182.088	6854.84
182.164	6926.03
182.24	6974.71
182.317	7007.66
182.393	7002.04
182.469	7051.23
182.546	7100.52
182.622	7113.49
182.698	7099.65
182.775	7141.46
182.851	7190.03
182.927	7167.93
183.003	7152.27
183.08	7125.41
183.156	7156.4
183.232	7144.96
183.308	7103.02
183.385	7131.6
183.461	7193.88
183.537	7194.17
183.613	7236.89
183.69	7205.8
183.766	7162.23
183.842	7189.58
183.918	7207.12
183.995	7255.18
184.071	7267.82
184.147	7252.01
184.223	7212.73
184.299	7254.07
184.375	7213.56
184.452	7236.93
184.528	7368.7
184.604	7405.89
184.68	7453.03
184.756	7479.48
184.832	7493.61
184.908	7515.04
184.985	7511.72
185.061	7454.86
185.137	7489.34
185.213	7444.36
185.289	7453.44
185.365	7427.78
185.441	7421.39
185.517	7472.18
185.593	7455.35
185.669	7446.84
185.745	7487.95
185.822	7547.75
185.898	7521.5
185.974	7557.97
186.05	7533.83
186.126	7459.55
186.202	7434.33
186.278	7418.56
186.354	7385.48
186.43	7412.32
186.506	7406.79
186.582	7406.07
186.658	7427.93
186.734	7348.7
186.81	7363.06
186.886	7369.11
186.962	7418.08
187.038	7410.34
187.114	7382.11
187.19	7410.86
187.266	7376.11
187.341	7370.29
187.417	7346.12
187.493	7344.73
187.569	7354.53
187.645	7332.28
187.721	7287.85
187.797	7317.36
187.873	7331.06
187.949	7309.06
188.025	7285.39
188.101	7298.37
188.176	7314.13
188.252	7299.33
188.328	7335.35
188.404	7334.19
188.48	7314.54
188.556	7292.48
188.632	7283.83
188.707	7285.56
188.783	7275.65
188.859	7261
188.935	7216.83
189.011	7247.25
189.086	7221.45
189.162	7193.23
189.238	7186.22
189.314	7181.27
189.39	7154.5
189.465	7128.88
189.541	7192.53
189.617	7137.22
189.693	7110.7
189.768	7126.38
189.844	7217.6
189.92	7186.91
189.996	7222.05
190.071	7262.46
190.147	7248.72
190.223	7285.55
190.298	7253.58
190.374	7208.83
190.45	7249.62
190.526	7282.16
190.601	7263.12
190.677	7272.15
190.753	7371.39
190.828	7382.34
190.904	7432.82
190.98	7492.06
191.055	7532.1
191.131	7493.92
191.207	7566.74
191.282	7606.28
191.358	7569.99
191.433	7516.16
191.509	7566.31
191.585	7555.2
191.66	7558.71
191.736	7594.33
191.811	7558.08
191.887	7619.49
191.963	7698.97
192.038	7716.66
192.114	7721.03
192.189	7730.5
192.265	7719.98
192.34	7639.4
192.416	7635.6
192.491	7626.89
192.567	7631.27
192.642	7637.24
192.718	7639.45
192.793	7594.01
192.869	7579.06
192.944	7590.69
193.02	7618.3
193.095	7629.36
193.171	7649.17
193.246	7641.95
193.322	7630.22
193.397	7639.6
193.473	7586.26
193.548	7523.93
193.624	7543.56
193.699	7540.29
193.775	7600.32
193.85	7601.9
193.925	7627.82
194.001	7630.66
194.076	7597.19
194.152	7561.94
194.227	7535.25
194.302	7500.08
194.378	7514.45
194.453	7504.07
194.529	7550.95
194.604	7501.19
194.679	7480.08
194.755	7409.78
194.83	7461.98
194.905	7453.66
194.981	7484.82
195.056	7459.07
195.131	7479.3
195.207	7478.19
195.282	7443.2
195.357	7367.84
195.433	7425.96
195.508	7390.57
195.583	7414.46
195.659	7465.24
195.734	7492.56
195.809	7492.22
195.884	7527.29
195.96	7529.84
196.035	7582.48
196.11	7560.5
196.185	7597.09
196.261	7611.89
196.336	7724.63
196.411	7673.49
196.486	7695.9
196.561	7667.91
196.637	7704.15
196.712	7762.74
196.787	7772.46
196.862	7830.1
196.937	7871.78
197.013	7888.05
197.088	7923.58
197.163	8003.16
197.238	8065.36
197.313	8061.17
197.388	8108.17
197.464	8215.04
197.539	8249.23
197.614	8227.11
197.689	8275.75
197.764	8334.46
197.839	8405.04
197.914	8382.03
197.989	8457.72
198.065	8499.43
198.14	8679.74
198.215	8772.08
198.29	8814.55
198.365	8856.57
198.44	8891.65
198.515	8997.71
198.59	9054.99
198.665	9145.25
198.74	9172.27
198.815	9174.97
198.89	9257.66
198.965	9370.07
199.04	9354.08
199.115	9418.1
199.19	9569.89
199.265	9576.25
199.34	9611.02
199.415	9733.72
199.49	9808.91
199.565	9837.95
199.64	9929.89
199.715	9916.78
199.79	9935.47
199.865	9956.04
199.94	9952.47
200.015	10062.01
200.09	10071.55
200.165	10092.16
200.24	10120.01
200.315	10256.2
200.39	10310.4
200.464	10330.72
200.539	10326.58
200.614	10381.1
200.689	10458.67
200.764	10483.2
200.839	10547.06
200.914	10559.48
200.989	10514.23
201.063	10568.39
201.138	10516.29
201.213	10511.23
201.288	10443.54
201.363	10466.77
201.438	10471.1
201.512	10528.32
201.587	10467.66
201.662	10483.36
201.737	10524.22
201.812	10552.94
201.886	10438.09
201.961	10473.66
202.036	10434.45
202.111	10428.81
202.186	10330.73
202.26	10275.61
202.335	10193.94
202.41	10173.47
202.485	10115.73
202.559	10050.65
202.634	9953.16
202.709	9984.93
202.784	9915.92
202.858	9914.95
202.933	9849.36
203.008	9818.24
203.082	9745.71
203.157	9743.21
203.232	9586.37
203.306	9507.76
203.381	9390.53
203.456	9308.67
203.53	9222.56
203.605	9148.93
203.68	9060.46
203.754	9039.72
203.829	8984.3
203.904	8912.92
203.978	8863.03
204.053	8879.98
204.127	8832.47
204.202	8826.26
204.277	8757.73
204.351	8733.81
204.426	8711.71
204.5	8681.29
204.575	8560.01
204.65	8593.9
204.724	8558.65
204.799	8588.95
204.873	8581.92
204.948	8575.76
205.022	8529.77
205.097	8499
205.171	8547.6
205.246	8578.6
205.32	8570.18
205.395	8564.65
205.469	8528.97
205.544	8557.18
205.618	8496.64
205.693	8542.07
205.767	8498.19
205.842	8578.86
205.916	8559.09
205.991	8514.81
206.065	8534.98
206.14	8590.51
206.214	8574.81
206.289	8549.87
206.363	8592.8
206.438	8597.13
206.512	8624.33
206.586	8691.25
206.661	8723.13
206.735	8643.96
206.81	8650.17
206.884	8702.13
206.958	8654.79
207.033	8721.46
207.107	8745.49
207.181	8855.02
207.256	8825.27
207.33	8894.52
207.405	8930.8
207.479	8996.93
207.553	9028.06
207.628	8968.99
207.702	9010.66
207.776	8986.31
207.851	9000.36
207.925	9057.77
207.999	9046.79
208.073	9034.42
208.148	9046.26
208.222	9001.38
208.296	9118.35
208.371	9175.44
208.445	9212.03
208.519	9323.03
208.593	9365.88
208.668	9348.74
208.742	9360.16
208.816	9372.38
208.89	9416.79
208.965	9419.73
209.039	9451.95
209.113	9517.63
209.187	9592.65
209.261	9573.92
209.336	9646.06
209.41	9717.38
209.484	9712.28
209.558	9791.36
209.632	9848.57
209.707	9887.96
209.781	9962.42
209.855	10022.3
209.929	10076.91
210.003	10098.2
210.077	10087.94
210.151	10251.59
210.226	10379.14
210.3	10470.23
210.374	10551.43
210.448	10566.46
210.522	10603.9
210.596	10638.45
210.67	10666.49
210.744	10830.8
210.818	10948.37
210.892	11023.3
210.966	10999.94
211.041	11053.86
211.115	11044.17
211.189	11122.04
211.263	11182.9
211.337	11207.33
211.411	11246.32
211.485	11227.81
211.559	11267.51
211.633	11275.7
211.707	11167.78
211.781	11187.64
211.855	11061.14
211.929	11033.58
212.003	10968.32
212.077	11002.44
212.151	11041.53
212.225	11070.15
212.299	11032.41
212.373	10992.22
212.447	10970.63
212.52	11079.25
212.594	11090.91
212.668	11125.85
212.742	11071.39
212.816	11050.43
212.89	11022.1
212.964	11014.72
213.038	11015.16
213.112	11059.21
213.186	11113.41
213.26	11030.18
213.333	10869.15
213.407	10881.86
213.481	10886.01
213.555	10919.86
213.629	10863.71
213.703	10798.85
213.777	10793.65
213.85	10717.7
213.924	10826.04
213.998	10811.97
214.072	10769.31
214.146	10709.7
214.219	10685.27
214.293	10667.98
214.367	10660.84
214.441	10685.37
214.515	10639.11
214.588	10549.01
214.662	10409.35
214.736	10313.48
214.81	10330.57
214.883	10341.75
214.957	10287.04
215.031	10222.27
215.105	10125.95
215.178	10059.76
215.252	10016.17
215.326	9897.83
215.4	9802.21
215.473	9605.51
215.547	9516.87
215.621	9447.59
215.694	9441.13
215.768	9336.87
215.842	9258.68
215.915	9178.96
215.989	9055.44
216.063	8988.83
216.136	8962.15
216.21	8935.35
216.284	8947.48
216.357	8914.74
216.431	8869.06
216.504	8867.08
216.578	8929.97
216.652	8935.74
216.725	8907.63
216.799	8909.99
216.873	8895.64
216.946	8902.09
217.02	8866.35
217.093	8834.44
217.167	8735.53
217.24	8650.41
217.314	8612.5
217.387	8562.44
217.461	8513.88
217.535	8539.43
217.608	8472.98
217.682	8444.96
217.755	8459.16
217.829	8394.9
217.902	8378.73
217.976	8361.27
218.049	8308.63
218.123	8218.85
218.196	8223.18
218.27	8186.51
218.343	8110.9
218.417	8102.87
218.49	8081.7
218.563	8122.83
218.637	8133.8
218.71	8204.06
218.784	8232.12
218.857	8269.97
218.931	8294.3
219.004	8308.59
219.077	8329.39
219.151	8351.61
219.224	8339.72
219.298	8330.63
219.371	8385.25
219.444	8343.02
219.518	8348.32
219.591	8370.68
219.665	8481.52
219.738	8494.22
219.811	8472.53
219.885	8520.02
219.958	8554.87
220.031	8559.24
220.105	8585.67
220.178	8587.74
220.251	8561.55
220.325	8584.23
220.398	8601.51
220.471	8625.51
220.544	8660.21
220.618	8643.6
220.691	8668.15
220.764	8690.62
220.838	8723.4
220.911	8709.39
220.984	8801.2
221.057	8834.89
221.131	8856.2
221.204	8758.79
221.277	8827.01
221.35	8958.57
221.424	8955
221.497	8965.07
221.57	8994.32
221.643	9026.92
221.716	9079.36
221.79	9084.99
221.863	9095.77
221.936	9104.87
222.009	9115.75
222.082	9146.76
222.155	9151.67
222.229	9225.88
222.302	9256.45
222.375	9260.45
222.448	9301.62
222.521	9303.69
222.594	9304.51
222.667	9279.97
222.74	9337.35
222.814	9334.7
222.887	9316.11
222.96	9377.41
223.033	9433.57
223.106	9458.12
223.179	9487.6
223.252	9493.38
223.325	9527.27
223.398	9545.48
223.471	9575.62
223.544	9599.26
223.617	9612.65
223.69	9636.24
223.763	9590.53
223.837	9611.29
223.91	9643.02
223.983	9586.45
224.056	9552.7
224.129	9588.53
224.202	9647.78
224.275	9634.78
224.348	9602.46
224.42	9568.66
224.493	9505.24
224.566	9472.1
224.639	9491.36
224.712	9463.61
224.785	9452.48
224.858	9443.62
224.931	9425.08
225.004	9379.34
225.077	9380.25
225.15	9284.99
225.223	9284.99
225.296	9375.8
225.369	9317.01
225.442	9282.97
225.514	9305.93
225.587	9332.21
225.66	9325.71
225.733	9326.77
225.806	9334.71
225.879	9333.7
225.952	9305.25
226.025	9354.61
226.097	9408.61
226.17	9404.13
226.243	9334.09
226.316	9330.43
226.389	9332.55
226.461	9354.65
226.534	9381.9
226.607	9372.66
226.68	9458.77
226.753	9451.45
226.825	9360.59
226.898	9425.59
226.971	9430.84
227.044	9449.09
227.117	9454.43
227.189	9476.16
227.262	9510.26
227.335	9532.75
227.407	9519.99
227.48	9548.06
227.553	9566.31
227.626	9543.48
227.698	9546.03
227.771	9588.14
227.844	9567.68
227.916	9587.52
227.989	9542.68
228.062	9537.92
228.134	9631.7
228.207	9633.63
228.28	9625.88
228.352	9635.31
228.425	9639.89
228.498	9684.11
228.57	9660.08
228.643	9719.47
228.716	9721.21
228.788	9708.01
228.861	9702.9
228.934	9780.01
229.006	9795.56
229.079	9792.14
229.151	9780.39
229.224	9745.19
229.296	9778.95
229.369	9888.22
229.442	9938.52
229.514	9920.94
229.587	9974.21
229.659	9893.96
229.732	9906.34
229.804	9946.84
229.877	10035.01
229.949	10071.53
230.022	10127.04
230.094	10135.22
230.167	10123.27
230.239	10080.12
230.312	10068.27
230.384	10135.83
230.457	10128.21
230.529	10133.27
230.602	10139
230.674	10144.25
230.747	10191.92
230.819	10221.02
230.892	10096.69
230.964	10097.12
231.037	10132.7
231.109	10116.8
231.181	10162.17
231.254	10128.79
231.326	10116.51
231.399	10087.4
231.471	10053.58
231.544	9974.13
231.616	10021.37
231.688	10024.79
231.761	10014.78
231.833	10001.63
231.905	9915.64
231.978	9908.75
232.05	9891.17
232.122	9893.39
232.195	9875.13
232.267	9911.12
232.339	9881.58
232.412	9951.95
232.484	9926.84
232.556	9900.17
232.629	9980.49
232.701	9994.08
232.773	10005.01
232.846	9996.06
232.918	10006.66
232.99	10033.83
233.062	10080.7
233.135	10089.62
233.207	10059.56
233.279	10109.83
233.351	10155.06
233.424	10160.11
233.496	10139.93
233.568	10233.2
233.64	10192.55
233.713	10206.23
233.785	10210.13
233.857	10229.78
233.929	10176.56
234.001	10246.1
234.074	10319.45
234.146	10239.89
234.218	10240.18
234.29	10243.89
234.362	10234.98
234.434	10181.84
234.507	10138.05
234.579	10077.79
234.651	10058.66
234.723	10083.66
234.795	10096.14
234.867	10086.94
234.939	10149.57
235.012	10169.99
235.084	10169.7
235.156	10213.82
235.228	10202.02
235.3	10175.24
235.372	10189.21
235.444	10252.84
235.516	10166.44
235.588	10169.91
235.66	10182.48
235.732	10155.45
235.804	10360.62
235.876	10404.74
235.948	10477.74
236.02	10493.35
236.092	10516.95
236.164	10534.05
236.236	10542.72
236.308	10544.99
236.38	10573.22
236.452	10557.22
236.524	10576.64
236.596	10646.24
236.668	10679.49
236.74	10704.39
236.812	10737.49
236.884	10775.27
236.956	10785.15
237.028	10784.53
237.1	10768.05
237.172	10855.27
237.244	10945.09
237.316	10823.09
237.388	10807.58
237.46	10782.37
237.532	10849.4
237.604	10833.89
237.675	10916.05
237.747	10963.33
237.819	10953.45
237.891	10961.5
237.963	10945.36
238.035	10945.84
238.107	10826.61
238.178	10892.35
238.25	10893.65
238.322	10992.27
238.394	10939.07
238.466	10939.74
238.538	10985.23
238.609	11036.45
238.681	10969.99
238.753	10940.54
238.825	10963.63
238.897	10995.42
238.968	11082.61
239.04	11066.95
239.112	11196.19
239.184	11146.89
239.255	11141.92
239.327	11180.32
239.399	11202.59
239.471	11256.65
239.542	11290.91
239.614	11368.45
239.686	11279.48
239.758	11343.43
239.829	11305.25
239.901	11380.62
239.973	11405.25
240.044	11443.27
240.116	11456.24
240.188	11476.57
240.259	11496.33
240.331	11488.04
240.403	11535.51
240.474	11482.54
240.546	11468.32
240.618	11396.75
240.689	11401.38
240.761	11428.42
240.833	11498.3
240.904	11493.19
240.976	11498.54
241.048	11522.55
241.119	11556.72
241.191	11611.95
241.262	11680.74
241.334	11679.92
241.405	11686.23
241.477	11687.05
241.549	11699.1
241.62	11720.12
241.692	11772.36
241.763	11834.59
241.835	11850.06
241.906	11861.34
241.978	11834.88
242.049	11912.67
242.121	11980.97
242.192	12059.34
242.264	12022.85
242.335	11976.87
242.407	12033.02
242.478	12037.46
242.55	12062.91
242.621	12052.45
242.693	12048.98
242.764	12037.6
242.836	12050.47
242.907	12083.97
242.979	12117.91
243.05	12143.02
243.122	12172.13
243.193	12171.56
243.264	12090.87
243.336	12095.78
243.407	12142.11
243.479	12227.28
243.55	12250.37
243.622	12269.22
243.693	12265.02
243.764	12339.93
243.836	12318.05
243.907	12303.78
243.978	12305.95
244.05	12327.74
244.121	12278.33
244.192	12326.77
244.264	12282.47
244.335	12289.46
244.407	12236.73
244.478	12256.01
244.549	12243.72
244.62	12195.61
244.692	12191.61
244.763	12249.31
244.834	12244.44
244.906	12213.01
244.977	12232.25
245.048	12285.32
245.119	12262.86
245.191	12232.88
245.262	12159.08
245.333	12241.64
245.405	12262.18
245.476	12296.98
245.547	12320.31
245.618	12380.51
245.689	12395.6
245.761	12428.53
245.832	12444.29
245.903	12491.29
245.974	12519.73
246.045	12535.15
246.117	12629.01
246.188	12611.65
246.259	12587.36
246.33	12604.95
246.401	12617.68
246.473	12587.6
246.544	12576.08
246.615	12638.94
246.686	12648.67
246.757	12735.24
246.828	12707.24
246.899	12783.98
246.97	12754.92
247.042	12738.43
247.113	12780.71
247.184	12873.17
247.255	12874.27
247.326	12896.35
247.397	12911.83
247.468	12929.9
247.539	12946.1
247.61	12896.83
247.681	12948.65
247.752	13010.55
247.823	12990.78
247.894	13019.32
247.965	12990.3
248.037	12968.51
248.108	12906.43
248.179	12917.08
248.25	12911.15
248.321	12941.08
248.392	12891.19
248.463	12980.46
248.534	12981.57
248.605	13000.04
248.675	12973.67
248.746	13000.13
248.817	13018.4
248.888	13034.94
248.959	12969.38
249.03	12994.78
249.101	13000.71
249.172	12982.97
249.243	12905.99
249.314	12972.66
249.385	12977.1
249.456	13011.51
249.527	13012.96
249.598	13046.85
249.669	13048.73
249.739	13060.35
249.81	13084.35
249.881	13045.31
249.952	13038.8
250.023	13035.37
250.094	12981.05
250.165	12946.63
250.235	12935.39
250.306	12941.37
250.377	12907.48
250.448	12945.66
250.519	12874.85
250.59	12941.08
250.66	12945.66
250.731	13022.45
250.802	13017
250.873	13033.2
250.944	13052.1
251.014	13034.31
251.085	13134.1
251.156	13165.14
251.227	13219.61
251.297	13271
251.368	13320.22
251.439	13362.88
251.51	13422.42
251.58	13411.91
251.651	13404.73
251.722	13461.71
251.792	13409.11
251.863	13414.95
251.934	13478.34
252.005	13605.6
252.075	13611.48
252.146	13665.71
252.217	13720.28
252.287	13763.76
252.358	13776.44
252.429	13856.13
252.499	13852.42
252.57	13864.47
252.641	13908
252.711	13909.78
252.782	13864.66
252.852	13952.68
252.923	13959.14
252.994	13970.76
253.064	14026.82
253.135	14012.55
253.205	13990.67
253.276	14074.59
253.347	14142.42
253.417	14113.06
253.488	14089.2
253.558	14074.4
253.629	14070.88
253.699	14079.56
253.77	14115.33
253.841	14108.19
253.911	14120.97
253.982	14142.37
254.052	14168.74
254.123	14178.81
254.193	14186.38
254.264	14333.06
254.334	14293.1
254.405	14245.71
254.475	14216.21
254.546	14225.13
254.616	14288.28
254.687	14322.8
254.757	14341.5
254.827	14346.32
254.898	14375.87
254.968	14385.37
255.039	14372.59
255.109	14410.68
255.18	14377.08
255.25	14301.63
255.321	14331.76
255.391	14287.75
255.461	14380.64
255.532	14294.75
255.602	14289.54
255.673	14230.1
255.743	14192.75
255.813	14123.04
255.884	14181.8
255.954	14211.02
256.024	14274.26
256.095	14285.64
256.165	14250.54
256.235	14275.46
256.306	14261.77
256.376	14314.89
256.446	14360.45
256.517	14398.77
256.587	14441
256.657	14467.51
256.728	14499.91
256.798	14517.02
256.868	14513.93
256.938	14480.38
257.009	14521.65
257.079	14555.01
257.149	14661.25
257.219	14593.81
257.29	14632.76
257.36	14578.97
257.43	14625.96
257.5	14560.84
257.571	14543.05
257.641	14577.57
257.711	14544.4
257.781	14578.73
257.852	14591.31
257.922	14518.52
257.992	14520.69
258.062	14517.79
258.132	14567.35
258.202	14566.05
258.273	14572.36
258.343	14649.15
258.413	14637.72
258.483	14645.58
258.553	14615.94
258.623	14593.47
258.693	14629.82
258.764	14701.31
258.834	14768.6
258.904	14786.77
258.974	14783.69
259.044	14802.97
259.114	14831.65
259.184	14854.79
259.254	14859.47
259.324	14802.01
259.394	14864.77
259.464	14951.1
259.535	14964.74
259.605	14963.05
259.675	14957.99
259.745	14999.93
259.815	14978.86
259.885	14984.02
259.955	15110.97
260.025	15110.4
260.095	15121.05
260.165	15151.9
260.235	15216.05
260.305	15196.96
260.375	15166.93
260.445	15255.53
260.515	15322.39
260.585	15371.46
260.655	15390.11
260.725	15440.48
260.795	15484.35
260.865	15559.54
260.934	15522.81
261.004	15548.98
261.074	15551.63
261.144	15615.84
261.214	15656.81
261.284	15653.34
261.354	15690.41
261.424	15645.25
261.494	15716.25
261.564	15721.27
261.634	15743.34
261.703	15679.86
261.773	15710.43
261.843	15745.61
261.913	15737.23
261.983	15673.02
262.053	15704.74
262.123	15702.33
262.192	15659.57
262.262	15706.13
262.332	15645.35
262.402	15679.67
262.472	15681.36
262.541	15617.39
