Data from 20250701_urea_2M_exp3_MAYP1162681_10-09-51-526.txt Node
Date: Wed Jul 02 10:09:51 BST 2025
User: adleo
Spectrometer: MAYP116268
Trigger mode: 0
Integration Time (sec): 4.000000E0
Scans to average: 1
Electric dark correction enabled: true
Nonlinearity correction enabled: true
Boxcar width: 10
XAxis mode: Wavelengths
Number of Pixels in Spectrum: 2068
>>>>>Begin Spectral Data<<<<<
179.565	3845.53
179.642	4042.76
179.718	4197.56
179.795	4339.24
179.871	4457.13
179.948	4524.02
180.024	4599.33
180.101	4685.92
180.177	4744.57
180.254	4826.07
180.33	4905.86
180.407	5189.19
180.483	5489.14
180.56	5790.48
180.636	6064.11
180.712	6020.89
180.789	6058.22
180.865	6099.56
180.942	6131.65
181.018	6175.03
181.095	6219.79
181.171	6242.49
181.248	6245.47
181.324	6296.7
181.4	6315.86
181.477	6357.49
181.553	6404.46
181.63	6477.01
181.706	6533.78
181.782	6556.04
181.859	6554.12
181.935	6572.03
182.011	6553.74
182.088	6606.47
182.164	6678.74
182.24	6739.46
182.317	6769.13
182.393	6762.46
182.469	6813.36
182.546	6863.75
182.622	6875.23
182.698	6857.69
182.775	6896.22
182.851	6945.45
182.927	6927.48
183.003	6914.18
183.08	6890.17
183.156	6916.92
183.232	6903.47
183.308	6856.92
183.385	6886.12
183.461	6949.29
183.537	6952.61
183.613	7002.43
183.69	6975.67
183.766	6931.49
183.842	6947.74
183.918	6967
183.995	7012.83
184.071	7021.96
184.147	7002.4
184.223	6964.23
184.299	7010.18
184.375	6971.94
184.452	6996.51
184.528	7124.26
184.604	7166.14
184.68	7207.84
184.756	7234.23
184.832	7251.67
184.908	7271.94
184.985	7269.2
185.061	7212.36
185.137	7242.11
185.213	7195.79
185.289	7199.01
185.365	7182.1
185.441	7182.3
185.517	7231.97
185.593	7220.72
185.669	7214.47
185.745	7251.29
185.822	7306.71
185.898	7273.68
185.974	7302.55
186.05	7276.25
186.126	7200.07
186.202	7178.21
186.278	7166
186.354	7137.6
186.43	7162.02
186.506	7152.47
186.582	7151.89
186.658	7171.15
186.734	7101.74
186.81	7116.34
186.886	7131.37
186.962	7172.45
187.038	7155.59
187.114	7122.07
187.19	7152.45
187.266	7121.89
187.341	7117.23
187.417	7095.61
187.493	7094.98
187.569	7099.6
187.645	7077.54
187.721	7035.05
187.797	7058.25
187.873	7074.69
187.949	7051.64
188.025	7027.83
188.101	7037.58
188.176	7061.32
188.252	7052.53
188.328	7081.62
188.404	7079.56
188.48	7059.14
188.556	7032.52
188.632	7028.77
188.707	7037.28
188.783	7020.12
188.859	7002.21
188.935	6968.47
189.011	6995.43
189.086	6976.02
189.162	6952.91
189.238	6945.76
189.314	6934.76
189.39	6913.09
189.465	6887.28
189.541	6947.16
189.617	6893.94
189.693	6879.72
189.768	6885.87
189.844	6967.02
189.92	6942.01
189.996	6968.87
190.071	7005.63
190.147	7000.25
190.223	7029.71
190.298	7001.68
190.374	6957.34
190.45	6999.03
190.526	7025.22
190.601	7001.43
190.677	7009.74
190.753	7108.36
190.828	7115.57
190.904	7169.11
190.98	7225.78
191.055	7263.41
191.131	7230.29
191.207	7304.77
191.282	7338.1
191.358	7300.91
191.433	7253.06
191.509	7295.66
191.585	7285.9
191.66	7287.63
191.736	7317.66
191.811	7294.83
191.887	7350.56
191.963	7437.17
192.038	7451.59
192.114	7458.7
192.189	7475.23
192.265	7458.47
192.34	7379.79
192.416	7377.96
192.491	7363.01
192.567	7365.7
192.642	7370.51
192.718	7382
192.793	7334.65
192.869	7320.43
192.944	7330.27
193.02	7357.1
193.095	7370.37
193.171	7389.88
193.246	7392.29
193.322	7384.79
193.397	7384.4
193.473	7332.76
193.548	7270.88
193.624	7290.31
193.699	7283.19
193.775	7335.27
193.85	7343.43
193.925	7375.74
194.001	7380.59
194.076	7357.09
194.152	7327.66
194.227	7303.24
194.302	7262.55
194.378	7278.93
194.453	7272.21
194.529	7318.69
194.604	7265.62
194.679	7247.17
194.755	7184.67
194.83	7223.39
194.905	7212.38
194.981	7243.87
195.056	7225.9
195.131	7240.03
195.207	7232.43
195.282	7196.15
195.357	7132.3
195.433	7187.28
195.508	7152.52
195.583	7176.45
195.659	7228.86
195.734	7244.29
195.809	7235.83
195.884	7268.54
195.96	7271.67
196.035	7322.52
196.11	7304.2
196.185	7343.7
196.261	7358.46
196.336	7465.44
196.411	7415.82
196.486	7438.5
196.561	7406.3
196.637	7432.24
196.712	7494
196.787	7507.03
196.862	7563.11
196.937	7599.93
197.013	7618.35
197.088	7645.32
197.163	7721.04
197.238	7777.69
197.313	7782.5
197.388	7833.22
197.464	7934.63
197.539	7970.17
197.614	7941.51
197.689	7988.22
197.764	8044.22
197.839	8111.41
197.914	8087.02
197.989	8165.81
198.065	8211.41
198.14	8392.87
198.215	8488.85
198.29	8521.44
198.365	8569.08
198.44	8607.14
198.515	8703.3
198.59	8758.02
198.665	8855.33
198.74	8877.48
198.815	8880.61
198.89	8957.42
198.965	9058.96
199.04	9051.59
199.115	9103.81
199.19	9255.95
199.265	9262.78
199.34	9298.17
199.415	9411.94
199.49	9489
199.565	9519.67
199.64	9604.12
199.715	9589.09
199.79	9606.81
199.865	9632.48
199.94	9622.08
200.015	9728.47
200.09	9743.17
200.165	9768.11
200.24	9781.55
200.315	9915.46
200.39	9967.57
200.464	9989.83
200.539	10001.48
200.614	10048.63
200.689	10135.29
200.764	10160.59
200.839	10221.69
200.914	10238.79
200.989	10202.75
201.063	10251.01
201.138	10190.7
201.213	10187.57
201.288	10119.32
201.363	10138
201.438	10134.87
201.512	10198.1
201.587	10143.27
201.662	10154.26
201.737	10190.2
201.812	10214
201.886	10104.75
201.961	10132.36
202.036	10088.49
202.111	10072.54
202.186	9971.3
202.26	9910.55
202.335	9828.56
202.41	9804.53
202.485	9747.52
202.559	9680.29
202.634	9589.46
202.709	9626.9
202.784	9562.61
202.858	9567.91
202.933	9503.05
203.008	9480.03
203.082	9404
203.157	9393.84
203.232	9254.17
203.306	9176.53
203.381	9071.41
203.456	8995.53
203.53	8917.35
203.605	8849.22
203.68	8766.79
203.754	8745.48
203.829	8690.6
203.904	8622.89
203.978	8583.9
204.053	8599.3
204.127	8557.01
204.202	8548.82
204.277	8478.67
204.351	8449.46
204.426	8423.8
204.5	8396.76
204.575	8276.67
204.65	8316.38
204.724	8292.69
204.799	8314.9
204.873	8305.56
204.948	8305.04
205.022	8256.56
205.097	8226.9
205.171	8271.49
205.246	8297.1
205.32	8294.5
205.395	8291.85
205.469	8262.72
205.544	8281.78
205.618	8215.09
205.693	8254.45
205.767	8217.22
205.842	8292.72
205.916	8268.04
205.991	8232.44
206.065	8248.65
206.14	8309.98
206.214	8287.6
206.289	8255.78
206.363	8293.21
206.438	8299.52
206.512	8319.78
206.586	8390.15
206.661	8414.75
206.735	8344.02
206.81	8353.21
206.884	8402.85
206.958	8356.73
207.033	8416.07
207.107	8438.8
207.181	8557.98
207.256	8536.32
207.33	8598.87
207.405	8644.82
207.479	8716.28
207.553	8744.42
207.628	8683.63
207.702	8718.9
207.776	8694.93
207.851	8713.12
207.925	8772.44
207.999	8761.47
208.073	8758.15
208.148	8766.67
208.222	8731.19
208.296	8842.45
208.371	8889.89
208.445	8927.49
208.519	9031.82
208.593	9073.32
208.668	9061.23
208.742	9061.95
208.816	9061.42
208.89	9105.15
208.965	9097.3
209.039	9129.03
209.113	9187.72
209.187	9268.2
209.261	9252.46
209.336	9324.58
209.41	9387.95
209.484	9384.91
209.558	9464.23
209.632	9510.11
209.707	9553.21
209.781	9628.95
209.855	9680.39
209.929	9741.01
210.003	9768.08
210.077	9761.96
210.151	9927.87
210.226	10048.12
210.3	10142.91
210.374	10228.67
210.448	10243.89
210.522	10281.28
210.596	10314.47
210.67	10347.13
210.744	10506.9
210.818	10629.51
210.892	10699.91
210.966	10680.88
211.041	10741.78
211.115	10727.81
211.189	10809.28
211.263	10860.93
211.337	10877.98
211.411	10926.51
211.485	10912.34
211.559	10948.18
211.633	10957.91
211.707	10846.14
211.781	10867.35
211.855	10740.91
211.929	10709.85
212.003	10643.05
212.077	10676.4
212.151	10716.01
212.225	10745.07
212.299	10702.41
212.373	10654.95
212.447	10645.84
212.52	10748.14
212.594	10755.27
212.668	10791.5
212.742	10741.29
212.816	10720.09
212.89	10700.96
212.964	10693.54
213.038	10695.52
213.112	10738.6
213.186	10784.17
213.26	10704.28
213.333	10541.4
213.407	10557.58
213.481	10557.87
213.555	10601.69
213.629	10552.44
213.703	10488.06
213.777	10475.24
213.85	10401.62
213.924	10501.37
213.998	10479.01
214.072	10441.23
214.146	10374.74
214.219	10355.51
214.293	10330.8
214.367	10322.9
214.441	10345.01
214.515	10288.44
214.588	10192.48
214.662	10054.52
214.736	9968.02
214.81	9982.27
214.883	10001.67
214.957	9948.65
215.031	9894.83
215.105	9788.62
215.178	9729.76
215.252	9690.99
215.326	9585.18
215.4	9492.19
215.473	9310.16
215.547	9224.57
215.621	9162.32
215.694	9158.52
215.768	9057.5
215.842	8984.19
215.915	8913.87
215.989	8798.7
216.063	8740.76
216.136	8719.25
216.21	8691.72
216.284	8699.33
216.357	8668.86
216.431	8620.64
216.504	8614.33
216.578	8671.86
216.652	8684.32
216.725	8653.99
216.799	8657.07
216.873	8642.01
216.946	8653.17
217.02	8611.86
217.093	8577.6
217.167	8474.85
217.24	8393.41
217.314	8348.73
217.387	8302.67
217.461	8248.88
217.535	8272.93
217.608	8205.97
217.682	8174.41
217.755	8184.56
217.829	8127.34
217.902	8111.08
217.976	8093.38
218.049	8042.34
218.123	7961.24
218.196	7961.48
218.27	7921.12
218.343	7845.72
218.417	7833.79
218.49	7808.35
218.563	7849.41
218.637	7860.77
218.71	7933.37
218.784	7965.18
218.857	8005.14
218.931	8028.69
219.004	8039.08
219.077	8049.09
219.151	8070.2
219.224	8060.92
219.298	8060.1
219.371	8106.82
219.444	8062.63
219.518	8072.01
219.591	8094.03
219.665	8205.43
219.738	8215.78
219.811	8195.54
219.885	8240.85
219.958	8276.56
220.031	8283.82
220.105	8306.63
220.178	8309.99
220.251	8280.01
220.325	8294.54
220.398	8309.56
220.471	8331.44
220.544	8370.32
220.618	8349.09
220.691	8375.94
220.764	8399.61
220.838	8431.03
220.911	8411.25
220.984	8498.65
221.057	8537.34
221.131	8554.03
221.204	8447.73
221.277	8520.32
221.35	8646.88
221.424	8642.5
221.497	8650.69
221.57	8674.4
221.643	8712.63
221.716	8763.99
221.79	8767.74
221.863	8781.32
221.936	8787.77
222.009	8802.06
222.082	8832.83
222.155	8840.67
222.229	8909.47
222.302	8937.05
222.375	8938.44
222.448	8986.29
222.521	8998.28
222.594	9000.74
222.667	8978.08
222.74	9035.83
222.814	9031.59
222.887	9020.85
222.96	9077.18
223.033	9126.78
223.106	9156.57
223.179	9185.33
223.252	9193.75
223.325	9228.12
223.398	9242.47
223.471	9270.49
223.544	9295.13
223.617	9309.2
223.69	9337.89
223.763	9299.36
223.837	9320.98
223.91	9350.98
223.983	9301.2
224.056	9265.44
224.129	9284.45
224.202	9345.57
224.275	9326.65
224.348	9297.66
224.42	9257.12
224.493	9192.8
224.566	9164.72
224.639	9186.82
224.712	9154.5
224.785	9139.24
224.858	9121.95
224.931	9103.17
225.004	9073.52
225.077	9070.54
225.15	8976.92
225.223	8973.79
225.296	9057.41
225.369	8999.7
225.442	8966.81
225.514	8981.3
225.587	8998.05
225.66	9009.75
225.733	9005.13
225.806	9020.82
225.879	9010.86
225.952	8979.48
226.025	9035.61
226.097	9082.38
226.17	9069.14
226.243	9000.51
226.316	8995.36
226.389	9006.86
226.461	9027.18
226.534	9043.26
226.607	9029.49
226.68	9112.08
226.753	9106.93
226.825	9017.14
226.898	9077.21
226.971	9082.61
227.044	9103.83
227.117	9115.05
227.189	9131.23
227.262	9169.47
227.335	9192.58
227.407	9185.7
227.48	9215.15
227.553	9224.35
227.626	9204.89
227.698	9207.97
227.771	9253.45
227.844	9231.11
227.916	9248.15
227.989	9210.02
228.062	9203.47
228.134	9295.02
228.207	9299.5
228.28	9291.17
228.352	9308.02
228.425	9313.8
228.498	9359.12
228.57	9336.93
228.643	9395.16
228.716	9394.58
228.788	9378.78
228.861	9372.28
228.934	9436.56
229.006	9451.77
229.079	9454.27
229.151	9445.7
229.224	9413.31
229.296	9439.6
229.369	9550.77
229.442	9600.14
229.514	9583.59
229.587	9633.81
229.659	9554.53
229.732	9564.16
229.804	9609.57
229.877	9693.06
229.949	9731.4
230.022	9780.5
230.094	9780.16
230.167	9761.37
230.239	9717.07
230.312	9704.07
230.384	9776.24
230.457	9772.68
230.529	9782.84
230.602	9784.67
230.674	9794.2
230.747	9843.21
230.819	9872.98
230.892	9747.46
230.964	9749.29
231.037	9775.52
231.109	9763.87
231.181	9805.57
231.254	9769.69
231.326	9751.06
231.399	9717.66
231.471	9682.59
231.544	9600.12
231.616	9648.46
231.688	9663.92
231.761	9653.82
231.833	9648.91
231.905	9558.73
231.978	9555.79
232.05	9539.08
232.122	9544.38
232.195	9518.28
232.267	9551.27
232.339	9522.42
232.412	9589.58
232.484	9556.73
232.556	9533.48
232.629	9610.04
232.701	9627.91
232.773	9638.6
232.846	9629.35
232.918	9640.87
232.99	9658.5
233.062	9705.12
233.135	9713.98
233.207	9670.15
233.279	9715.7
233.351	9748.78
233.424	9755.62
233.496	9739.97
233.568	9824.26
233.64	9785.35
233.713	9802.44
233.785	9797.62
233.857	9819.64
233.929	9774.47
234.001	9848.77
234.074	9914.15
234.146	9836.82
234.218	9840.73
234.29	9841.78
234.362	9830.62
234.434	9781.77
234.507	9747.62
234.579	9695.65
234.651	9688.28
234.723	9727.01
234.795	9747.14
234.867	9739.43
234.939	9800.85
235.012	9812.41
235.084	9820.45
235.156	9853.25
235.228	9837.79
235.3	9819.73
235.372	9827.53
235.444	9890.43
235.516	9808.18
235.588	9822.54
235.66	9835.83
235.732	9805.82
235.804	10016.37
235.876	10060.19
235.948	10128.36
236.02	10146.23
236.092	10159.32
236.164	10166.98
236.236	10159.03
236.308	10157.2
236.38	10185.48
236.452	10157.97
236.524	10184.46
236.596	10244.56
236.668	10282.48
236.74	10300.92
236.812	10331.8
236.884	10364.28
236.956	10371.84
237.028	10362.11
237.1	10343.42
237.172	10410.88
237.244	10488.2
237.316	10359.17
237.388	10340.24
237.46	10314.7
237.532	10377.52
237.604	10365.63
237.675	10437.28
237.747	10490.42
237.819	10479.2
237.891	10484.02
237.963	10481.56
238.035	10471.78
238.107	10358.92
238.178	10418.59
238.25	10430.48
238.322	10523.98
238.394	10477.39
238.466	10479.7
238.538	10529.22
238.609	10566.66
238.681	10512.01
238.753	10483.63
238.825	10502.47
238.897	10540.72
238.968	10621.54
239.04	10605.59
239.112	10725.31
239.184	10686.18
239.255	10679.92
239.327	10709.26
239.399	10732.87
239.471	10779.21
239.542	10819.3
239.614	10892.01
239.686	10811.72
239.758	10873.55
239.829	10837.97
239.901	10910.97
239.973	10925.43
240.044	10958
240.116	10970.1
240.188	10994.48
240.259	11013.41
240.331	11009.36
240.403	11042.9
240.474	10990.46
240.546	10977.98
240.618	10914.37
240.689	10917.31
240.761	10934.76
240.833	10997.26
240.904	10997.26
240.976	10992.58
241.048	11007.96
241.119	11048.59
241.191	11101.59
241.262	11164.4
241.334	11172.59
241.405	11169.22
241.477	11171.73
241.549	11183.05
241.62	11211.15
241.692	11250.04
241.763	11316.17
241.835	11337.08
241.906	11359.35
241.978	11328.7
242.049	11398.44
242.121	11466.82
242.192	11537.76
242.264	11511.26
242.335	11478.1
242.407	11526.34
242.478	11532.12
242.55	11560.37
242.621	11534.05
242.693	11531.06
242.764	11518.33
242.836	11523.73
242.907	11566.25
242.979	11601.19
243.05	11626.78
243.122	11653.1
243.193	11657.96
243.264	11588.03
243.336	11593.96
243.407	11635.79
243.479	11724.23
243.55	11739.08
243.622	11752.19
243.693	11749.01
243.764	11812.05
243.836	11784.24
243.907	11772.68
243.978	11783.66
244.05	11802.61
244.121	11763.95
244.192	11802.37
244.264	11755.04
244.335	11761.98
244.407	11703.13
244.478	11719.9
244.549	11703.18
244.62	11653.2
244.692	11646.74
244.763	11686.5
244.834	11671.27
244.906	11642.97
244.977	11671.85
245.048	11724.63
245.119	11700.77
245.191	11676.63
245.262	11617.54
245.333	11692.91
245.405	11709.1
245.476	11739.13
245.547	11759.86
245.618	11813.79
245.689	11829.21
245.761	11865.17
245.832	11871.49
245.903	11920.45
245.974	11944.31
246.045	11960.7
246.117	12050.88
246.188	12043.56
246.259	12023.85
246.33	12042.55
246.401	12057.44
246.473	12017.48
246.544	12000.94
246.615	12067.9
246.686	12068.77
246.757	12141.64
246.828	12122.79
246.899	12201.27
246.97	12166.67
247.042	12156.01
247.113	12204.6
247.184	12292.68
247.255	12288.87
247.326	12310.13
247.397	12313.84
247.468	12325.5
247.539	12339.48
247.61	12300.24
247.681	12341.7
247.752	12402.04
247.823	12376.79
247.894	12393.56
247.965	12364.4
248.037	12348.93
248.108	12282.94
248.179	12286.17
248.25	12279.32
248.321	12310.84
248.392	12255.36
248.463	12343.13
248.534	12327.76
248.605	12341.69
248.675	12317.05
248.746	12336.72
248.817	12351.13
248.888	12379.24
248.959	12323.52
249.03	12349.35
249.101	12350.61
249.172	12337.35
249.243	12262.11
249.314	12327.14
249.385	12331.14
249.456	12363.58
249.527	12363.96
249.598	12393.03
249.669	12399.53
249.739	12421.13
249.81	12435.54
249.881	12391.68
249.952	12385.27
250.023	12398.28
250.094	12338.03
250.165	12300.62
250.235	12299.7
250.306	12314.74
250.377	12273.09
250.448	12298.21
250.519	12234.87
250.59	12295.46
250.66	12292.14
250.731	12366.07
250.802	12371.28
250.873	12390.66
250.944	12415.34
251.014	12405.65
251.085	12500.42
251.156	12531.37
251.227	12574.51
251.297	12629.61
251.368	12693.43
251.439	12739.08
251.51	12791
251.58	12785.6
251.651	12777.55
251.722	12828.6
251.792	12773.26
251.863	12779.77
251.934	12848.17
252.005	12958.32
252.075	12966.42
252.146	13020.74
252.217	13072.71
252.287	13116.58
252.358	13120.29
252.429	13194.72
252.499	13189.61
252.57	13196.79
252.641	13243.12
252.711	13252.18
252.782	13204.99
252.852	13277.68
252.923	13279.61
252.994	13287.18
253.064	13339.77
253.135	13322.32
253.205	13300.44
253.276	13378
253.347	13442.98
253.417	13419.26
253.488	13401.38
253.558	13386.53
253.629	13392.55
253.699	13405.04
253.77	13423.26
253.841	13421.91
253.911	13430.44
253.982	13449.15
254.052	13478.74
254.123	13489.69
254.193	13495.66
254.264	13638.25
254.334	13603.84
254.405	13567.68
254.475	13541.75
254.546	13541.75
254.616	13608.46
254.687	13642.59
254.757	13667.52
254.827	13674.84
254.898	13701.41
254.968	13710.23
255.039	13694.22
255.109	13722.04
255.18	13687.96
255.25	13613.04
255.321	13642.06
255.391	13597.62
255.461	13682.89
255.532	13597.23
255.602	13589.86
255.673	13536.64
255.743	13498.94
255.813	13421.09
255.884	13468.96
255.954	13508.2
256.024	13578.44
256.095	13584.9
256.165	13543.05
256.235	13564.36
256.306	13549.22
256.376	13593.91
256.446	13633.49
256.517	13667.52
256.587	13714.38
256.657	13741.42
256.728	13769.43
256.798	13778.64
256.868	13780.03
256.938	13745.37
257.009	13797.68
257.079	13831.76
257.149	13931.59
257.219	13863.67
257.29	13906.14
257.36	13841.64
257.43	13876.01
257.5	13807.61
257.571	13799.56
257.641	13839.13
257.711	13800.52
257.781	13834.84
257.852	13853.55
257.922	13791.07
257.992	13797.92
258.062	13788.52
258.132	13826.6
258.202	13833.93
258.273	13845.06
258.343	13915.73
258.413	13906.14
258.483	13907.78
258.553	13877.31
258.623	13847.67
258.693	13883.15
258.764	13953.67
258.834	14029.74
258.904	14046.18
258.974	14039.82
259.044	14053.94
259.114	14084.45
259.184	14116.85
259.254	14124.08
259.324	14071.39
259.394	14115.93
259.464	14199.38
259.535	14210.03
259.605	14204
259.675	14192.24
259.745	14231.58
259.815	14202.32
259.885	14201.5
259.955	14321.61
260.025	14314.77
260.095	14324.31
260.165	14352.61
260.235	14416.24
260.305	14391.84
260.375	14355.4
260.445	14453.6
260.515	14515.64
260.585	14566.25
260.655	14569.91
260.725	14612.62
260.795	14647.91
260.865	14721.42
260.934	14682.33
261.004	14705.66
261.074	14717.71
261.144	14781.58
261.214	14820.19
261.284	14828.29
261.354	14874.13
261.424	14826.13
261.494	14896.66
261.564	14910.1
261.634	14934.35
261.703	14856.65
261.773	14894.15
261.843	14932.71
261.913	14918.64
261.983	14856.26
262.053	14877.76
262.123	14879.45
262.192	14839.34
262.262	14883.16
262.332	14844.98
262.402	14882.77
262.472	14898.58
262.541	14833.89
262.611	14884.26
262.681	14850.76
262.751	14891.21
262.821	14890.77
262.89	14856.02
262.96	14879.35
