Data from 20250701_urea_2M_exp3_MAYP1162681_19-59-51-705.txt Node
Date: Tue Jul 01 19:59:51 BST 2025
User: adleo
Spectrometer: MAYP116268
Trigger mode: 0
Integration Time (sec): 4.000000E0
Scans to average: 1
Electric dark correction enabled: true
Nonlinearity correction enabled: true
Boxcar width: 10
XAxis mode: Wavelengths
Number of Pixels in Spectrum: 2068
>>>>>Begin Spectral Data<<<<<
179.565	3996.1
179.642	4202.13
179.718	4365.75
179.795	4502.69
179.871	4623.99
179.948	4692.79
180.024	4769.02
180.101	4857.27
180.177	4913.15
180.254	4995.86
180.33	5078.8
180.407	5373.23
180.483	5684.5
180.56	5999.33
180.636	6287.59
180.712	6245.95
180.789	6283.05
180.865	6329.01
180.942	6358.48
181.018	6396.59
181.095	6446.94
181.171	6461.67
181.248	6464.79
181.324	6525.52
181.4	6555.68
181.477	6595.11
181.553	6645.55
181.63	6723.65
181.706	6778.22
181.782	6806.3
181.859	6804.91
181.935	6824.94
182.011	6806.44
182.088	6864.82
182.164	6937.16
182.24	6988.63
182.317	7018.65
182.393	7011.64
182.469	7062.47
182.546	7109.07
182.622	7128.96
182.698	7106.08
182.775	7151.82
182.851	7203.38
182.927	7169.98
183.003	7151.92
183.08	7130.45
183.156	7162.5
183.232	7151.34
183.308	7108.2
183.385	7137.07
183.461	7199.35
183.537	7198.82
183.613	7248.8
183.69	7216.21
183.766	7174.28
183.842	7203.51
183.918	7221.38
183.995	7268.81
184.071	7273.52
184.147	7259.54
184.223	7215.59
184.299	7259.05
184.375	7221.86
184.452	7245.57
184.528	7376.37
184.604	7416.44
184.68	7455.07
184.756	7480.99
184.832	7494.12
184.908	7511.6
184.985	7518.81
185.061	7468.15
185.137	7505.94
185.213	7461.92
185.289	7469.55
185.365	7439.38
185.441	7426.5
185.517	7480.32
185.593	7466.86
185.669	7459.36
185.745	7492.19
185.822	7554.21
185.898	7525.6
185.974	7557.07
186.05	7527.93
186.126	7453.71
186.202	7430.3
186.278	7417.76
186.354	7380.21
186.43	7402.91
186.506	7400.51
186.582	7388.69
186.658	7406.94
186.734	7335.2
186.81	7345.43
186.886	7354.61
186.962	7405.11
187.038	7394.92
187.114	7361.34
187.19	7389.38
187.266	7357.61
187.341	7362.18
187.417	7335.12
187.493	7339.31
187.569	7350.36
187.645	7330.9
187.721	7288.83
187.797	7320.98
187.873	7342.8
187.949	7327.91
188.025	7302.56
188.101	7311.4
188.176	7335.67
188.252	7322.65
188.328	7352.05
188.404	7350.65
188.48	7330.86
188.556	7307.35
188.632	7303.26
188.707	7306.44
188.783	7296.34
188.859	7281.12
188.935	7242.8
189.011	7267.41
189.086	7239.15
189.162	7212.76
189.238	7200.03
189.314	7191.14
189.39	7164.52
189.465	7137.36
189.541	7190.52
189.617	7137.86
189.693	7118.89
189.768	7126.58
189.844	7214.49
189.92	7179.96
189.996	7209.9
190.071	7250.17
190.147	7241.48
190.223	7277.05
190.298	7247.15
190.374	7202.74
190.45	7238.53
190.526	7265.16
190.601	7247.28
190.677	7259.72
190.753	7356.99
190.828	7372.26
190.904	7429.19
190.98	7483.42
191.055	7517.46
191.131	7491.15
191.207	7568.92
191.282	7604.53
191.358	7573.95
191.433	7517.48
191.509	7565.9
191.585	7557.87
191.66	7558.78
191.736	7588.25
191.811	7553.53
191.887	7614.76
191.963	7697.02
192.038	7716.73
192.114	7719.38
192.189	7738.27
192.265	7725.25
192.34	7642.45
192.416	7635.48
192.491	7618.21
192.567	7625.62
192.642	7633.41
192.718	7629.47
192.793	7584.56
192.869	7573.89
192.944	7581.49
193.02	7610.15
193.095	7626.78
193.171	7645.78
193.246	7649.29
193.322	7639.05
193.397	7643.95
193.473	7595.17
193.548	7529.24
193.624	7560.51
193.699	7553.63
193.775	7609.19
193.85	7612.6
193.925	7651.55
194.001	7655.3
194.076	7626.89
194.152	7589.08
194.227	7569.17
194.302	7537.08
194.378	7549.34
194.453	7534.92
194.529	7577.91
194.604	7522.04
194.679	7497.96
194.755	7434.09
194.83	7475.03
194.905	7471.43
194.981	7504.65
195.056	7480.81
195.131	7498.89
195.207	7486.91
195.282	7454.56
195.357	7382.32
195.433	7440.73
195.508	7395.53
195.583	7423.17
195.659	7475.2
195.734	7506.99
195.809	7500.16
195.884	7531.11
195.96	7538.61
196.035	7591.44
196.11	7572.01
196.185	7621.19
196.261	7633.78
196.336	7744.94
196.411	7692.12
196.486	7714.77
196.561	7689.09
196.637	7714.13
196.712	7773.3
196.787	7776.04
196.862	7831.18
196.937	7865.94
197.013	7884.8
197.088	7918.79
197.163	7994.15
197.238	8055.04
197.313	8051.39
197.388	8098.23
197.464	8206.31
197.539	8236.9
197.614	8216.46
197.689	8269.96
197.764	8322.37
197.839	8393.18
197.914	8367.63
197.989	8447.88
198.065	8486.81
198.14	8669.09
198.215	8770.58
198.29	8816.75
198.365	8869.12
198.44	8906.41
198.515	9007.11
198.59	9062.91
198.665	9154.8
198.74	9181.34
198.815	9181.05
198.89	9263.32
198.965	9369.26
199.04	9356.26
199.115	9416.72
199.19	9566.97
199.265	9571.4
199.34	9613.15
199.415	9737.54
199.49	9814.42
199.565	9841.25
199.64	9933.9
199.715	9916.85
199.79	9935.68
199.865	9948.83
199.94	9943.58
200.015	10056.73
200.09	10082.55
200.165	10104.04
200.24	10128.46
200.315	10270.53
200.39	10324.87
200.464	10340.38
200.539	10350.69
200.614	10407.87
200.689	10492.57
200.764	10514.78
200.839	10579.32
200.914	10594.44
200.989	10553.24
201.063	10597.9
201.138	10548.74
201.213	10545.75
201.288	10478.16
201.363	10491.65
201.438	10498.2
201.512	10556.87
201.587	10493.12
201.662	10503.14
201.737	10542.17
201.812	10575.18
201.886	10461.34
201.961	10492.09
202.036	10453.02
202.111	10441.03
202.186	10335.52
202.26	10266.19
202.335	10187.75
202.41	10163.14
202.485	10099.85
202.559	10025.82
202.634	9935.99
202.709	9968.49
202.784	9894.32
202.858	9898.12
202.933	9838.59
203.008	9808.82
203.082	9739.28
203.157	9733.74
203.232	9579.98
203.306	9502.81
203.381	9378.65
203.456	9291.87
203.53	9211.5
203.605	9141.72
203.68	9057.82
203.754	9030.74
203.829	8985.38
203.904	8916.84
203.978	8873.74
204.053	8892.71
204.127	8847.62
204.202	8846.85
204.277	8774.51
204.351	8754.29
204.426	8724.73
204.5	8689.07
204.575	8571.58
204.65	8608.51
204.724	8576.73
204.799	8603.32
204.873	8591.82
204.948	8589.8
205.022	8544.72
205.097	8516.99
205.171	8565.39
205.246	8592.35
205.32	8595.29
205.395	8589.99
205.469	8561.33
205.544	8584.77
205.618	8517.16
205.693	8562.4
205.767	8510.52
205.842	8590.33
205.916	8569.11
205.991	8531.76
206.065	8560.25
206.14	8612.23
206.214	8589.45
206.289	8566.05
206.363	8606.09
206.438	8614.13
206.512	8642.48
206.586	8712.44
206.661	8742.49
206.735	8661.97
206.81	8662.84
206.884	8714.56
206.958	8673.28
207.033	8730.86
207.107	8756.1
207.181	8870.58
207.256	8846.66
207.33	8918.32
207.405	8965.87
207.479	9034.17
207.553	9061.93
207.628	8997.18
207.702	9042.41
207.776	9022.1
207.851	9036.44
207.925	9091.82
207.999	9077.52
208.073	9072.52
208.148	9079.26
208.222	9034.48
208.296	9152.07
208.371	9217.68
208.445	9255.15
208.519	9358.55
208.593	9394.95
208.668	9377.8
208.742	9383.05
208.816	9391.76
208.89	9432.75
208.965	9423.31
209.039	9451.92
209.113	9514.57
209.187	9589.1
209.261	9569.07
209.336	9638.37
209.41	9712.59
209.484	9712.49
209.558	9792.3
209.632	9836.45
209.707	9880.19
209.781	9956.71
209.855	10013.75
209.929	10069.08
210.003	10091.53
210.077	10080.35
210.151	10254.9
210.226	10376.13
210.3	10482.69
210.374	10567.22
210.448	10584.85
210.522	10620.8
210.596	10657.56
210.67	10688.01
210.744	10856.75
210.818	10983.53
210.892	11057.59
210.966	11033.12
211.041	11093.98
211.115	11081.36
211.189	11165.1
211.263	11220.32
211.337	11246.68
211.411	11295.89
211.485	11273.86
211.559	11310.48
211.633	11318.14
211.707	11202.84
211.781	11227.33
211.855	11090.37
211.929	11058.24
212.003	10990.13
212.077	11029.36
212.151	11067.92
212.225	11096.64
212.299	11052.15
212.373	11001.79
212.447	10980.06
212.52	11081.3
212.594	11087.86
212.668	11127.8
212.742	11074.89
212.816	11054.99
212.89	11033.83
212.964	11015.18
213.038	11018.22
213.112	11059.18
213.186	11111.99
213.26	11028.04
213.333	10865.99
213.407	10876.3
213.481	10874.33
213.555	10915.98
213.629	10860.37
213.703	10798.83
213.777	10791.89
213.85	10716.76
213.924	10827.42
213.998	10817.87
214.072	10783.51
214.146	10730.45
214.219	10704.29
214.293	10679.96
214.367	10666.46
214.441	10678.22
214.515	10629.55
214.588	10534.44
214.662	10400.6
214.736	10306.43
214.81	10319.04
214.883	10335.94
214.957	10291.93
215.031	10237.08
215.105	10131.81
215.178	10054.88
215.252	10013.98
215.326	9904.74
215.4	9811.67
215.473	9616.51
215.547	9529.03
215.621	9453.33
215.694	9438.83
215.768	9336.02
215.842	9265.09
215.915	9193.04
215.989	9078.76
216.063	9025.63
216.136	8997.99
216.21	8967.67
216.284	8986.4
216.357	8959.73
216.431	8908.8
216.504	8895.08
216.578	8956.38
216.652	8968.79
216.725	8949.39
216.799	8948.66
216.873	8927.92
216.946	8939.95
217.02	8901.18
217.093	8861.56
217.167	8757.08
217.24	8669.84
217.314	8630.2
217.387	8582.58
217.461	8532.1
217.535	8551.59
217.608	8473.1
217.682	8446.01
217.755	8459.19
217.829	8391.08
217.902	8374.1
217.976	8355.81
218.049	8306.21
218.123	8217.29
218.196	8215.03
218.27	8172.74
218.343	8099.67
218.417	8091.15
218.49	8063.3
218.563	8108.71
218.637	8118.1
218.71	8197.59
218.784	8224.68
218.857	8262.1
218.931	8280.42
219.004	8290.67
219.077	8311.56
219.151	8330.66
219.224	8319.35
219.298	8309.78
219.371	8361.95
219.444	8320.92
219.518	8329.82
219.591	8347.67
219.665	8459.23
219.738	8480.73
219.811	8470.59
219.885	8516.88
219.958	8554.37
220.031	8561.68
220.105	8584.98
220.178	8592.05
220.251	8562.54
220.325	8583.44
220.398	8598.26
220.471	8625.97
220.544	8669.05
220.618	8645.41
220.691	8678.42
220.764	8698.58
220.838	8731.02
220.911	8712.39
220.984	8802.37
221.057	8840.34
221.131	8870.42
221.204	8766.85
221.277	8835.7
221.35	8962.11
221.424	8955.8
221.497	8968.03
221.57	8992.52
221.643	9021.89
221.716	9073.51
221.79	9076.5
221.863	9097.49
221.936	9108.23
222.009	9121.27
222.082	9154.35
222.155	9158.64
222.229	9228.56
222.302	9257.11
222.375	9266.06
222.448	9314.31
222.521	9321.1
222.594	9319.7
222.667	9290.11
222.74	9354.38
222.814	9343.54
222.887	9322.92
222.96	9375.75
223.033	9417.65
223.106	9443.06
223.179	9472.98
223.252	9483.29
223.325	9518.38
223.398	9525.61
223.471	9564.76
223.544	9586.8
223.617	9592.2
223.69	9616.85
223.763	9579.38
223.837	9606.1
223.91	9636.2
223.983	9573.95
224.056	9539
224.129	9570.44
224.202	9627.48
224.275	9612.55
224.348	9584.86
224.42	9553.27
224.493	9492.35
224.566	9468.9
224.639	9489.02
224.712	9456.51
224.785	9442.92
224.858	9435.03
224.931	9417.06
225.004	9369.15
225.077	9364.58
225.15	9272.25
225.223	9272.88
225.296	9357.23
225.369	9296.09
225.442	9261.27
225.514	9290.34
225.587	9311.09
225.66	9310.32
225.733	9311.57
225.806	9319.95
225.879	9312.06
225.952	9276.24
226.025	9329.02
226.097	9383.74
226.17	9379.55
226.243	9312.4
226.316	9302.96
226.389	9310.18
226.461	9330.51
226.534	9344.47
226.607	9336.96
226.68	9423.36
226.753	9418.26
226.825	9325.47
226.898	9391.43
226.971	9400.29
227.044	9417.82
227.117	9425.24
227.189	9449.37
227.262	9489.68
227.335	9509.24
227.407	9503.51
227.48	9543.9
227.553	9557.14
227.626	9532.76
227.698	9536.13
227.771	9582.77
227.844	9565.01
227.916	9578.88
227.989	9544.44
228.062	9547.86
228.134	9643.86
228.207	9646.51
228.28	9641.65
228.352	9659.22
228.425	9664.14
228.498	9705.22
228.57	9680.57
228.643	9743.63
228.716	9738.57
228.788	9722
228.861	9720.12
228.934	9786.29
229.006	9792.69
229.079	9795.92
229.151	9784.69
229.224	9746.13
229.296	9776.28
229.369	9883.66
229.442	9937.57
229.514	9915
229.587	9969.32
229.659	9884.01
229.732	9901.5
229.804	9943.4
229.877	10027.91
229.949	10064.67
230.022	10125.05
230.094	10133.52
230.167	10116.61
230.239	10071.58
230.312	10062.33
230.384	10132.97
230.457	10131.43
230.529	10138.51
230.602	10142.99
230.674	10151.66
230.747	10199.18
230.819	10228.28
230.892	10106.02
230.964	10105.44
231.037	10138.17
231.109	10120.35
231.181	10167.36
231.254	10125.45
231.326	10112.35
231.399	10080.4
231.471	10048.7
231.544	9956.67
231.616	10000.5
231.688	10015.67
231.761	10007.49
231.833	9995.69
231.905	9907.62
231.978	9908.05
232.05	9894.33
232.122	9893.36
232.195	9865.33
232.267	9906.9
232.339	9886.24
232.412	9957.75
232.484	9931.01
232.556	9906.99
232.629	9977.77
232.701	9993.28
232.773	10008.55
232.846	9999.3
232.918	10010.24
232.99	10027.44
233.062	10080.96
233.135	10089.49
233.207	10047.53
233.279	10093.18
233.351	10126.94
233.424	10129.35
233.496	10102.57
233.568	10189.43
233.64	10153.74
233.713	10176.95
233.785	10173.68
233.857	10186.01
233.929	10133.03
234.001	10202.61
234.074	10270.61
234.146	10202.1
234.218	10202.92
234.29	10202.87
234.362	10189.14
234.434	10144.96
234.507	10110.71
234.579	10050.83
234.651	10034.45
234.723	10073.33
234.795	10096.26
234.867	10088.7
234.939	10154.31
235.012	10176.71
235.084	10189.77
235.156	10227.53
235.228	10213.66
235.3	10196.08
235.372	10207.93
235.444	10267.66
235.516	10181.55
235.588	10194.12
235.66	10213.87
235.732	10186.9
235.804	10399.15
235.876	10449.43
235.948	10511.88
236.02	10529.12
236.092	10542.32
236.164	10559.61
236.236	10552.39
236.308	10551.09
236.38	10584.28
236.452	10562.84
236.524	10582.01
236.596	10642.99
236.668	10680.14
236.74	10701.14
236.812	10738.34
236.884	10780.89
236.956	10795.15
237.028	10794.43
237.1	10769.81
237.172	10843.59
237.244	10923.97
237.316	10796.13
237.388	10782.01
237.46	10755.08
237.532	10816.85
237.604	10817.96
237.675	10897.71
237.747	10948.17
237.819	10934.63
237.891	10944.56
237.963	10937.43
238.035	10934
238.107	10826.24
238.178	10891.6
238.25	10901.28
238.322	10996.43
238.394	10941.06
238.466	10946.99
238.538	10993.58
238.609	11046.58
238.681	10989.8
238.753	10960.69
238.825	10986.87
238.897	11016.88
238.968	11112.7
239.04	11097.86
239.112	11220.69
239.184	11180.35
239.255	11175.72
239.327	11212.92
239.399	11237.16
239.471	11284
239.542	11323.13
239.614	11389.53
239.686	11301.05
239.758	11361.43
239.829	11321.9
239.901	11394.38
239.973	11403.06
240.044	11432.65
240.116	11443.73
240.188	11461.75
240.259	11488.36
240.331	11474.24
240.403	11513.08
240.474	11454.8
240.546	11445.5
240.618	11380.19
240.689	11375.32
240.761	11398.46
240.833	11473.12
240.904	11467.77
240.976	11469.12
241.048	11485.7
241.119	11523.01
241.191	11584.02
241.262	11653.58
241.334	11652.08
241.405	11658.73
241.477	11667.94
241.549	11681.63
241.62	11713.73
241.692	11757.15
241.763	11818.85
241.835	11838.57
241.906	11855.77
241.978	11826.28
242.049	11901.03
242.121	11967.31
242.192	12044.76
242.264	12012.37
242.335	11959.93
242.407	12006.73
242.478	12013.72
242.55	12043.17
242.621	12028.52
242.693	12021.38
242.764	12003.79
242.836	12005.91
242.907	12039.75
242.979	12071.17
243.05	12101.2
243.122	12126.75
243.193	12132.63
243.264	12053.68
243.336	12058.98
243.407	12104.15
243.479	12193.08
243.55	12202.57
243.622	12215.11
243.693	12208.26
243.764	12281.24
243.836	12257.58
243.907	12255.17
243.978	12263.94
244.05	12291.66
244.121	12240.42
244.192	12287.03
244.264	12241.62
244.335	12265.53
244.407	12212.03
244.478	12236.95
244.549	12228.42
244.62	12178.53
244.692	12176.5
244.763	12230.15
244.834	12221.18
244.906	12196.45
244.977	12215.64
245.048	12274.21
245.119	12254.11
245.191	12239.6
245.262	12172.84
245.333	12248.22
245.405	12263.21
245.476	12299.32
245.547	12314.55
245.618	12376.63
245.689	12389.7
245.761	12430.72
245.832	12434.82
245.903	12490.83
245.974	12516.38
246.045	12522.88
246.117	12611.67
246.188	12594.71
246.259	12575.81
246.33	12600.83
246.401	12614.28
246.473	12583.91
246.544	12571.42
246.615	12629.66
246.686	12624.4
246.757	12711.02
246.828	12694.49
246.899	12766.89
246.97	12729.97
247.042	12719.9
247.113	12767.52
247.184	12859.45
247.255	12856.41
247.326	12882.78
247.397	12889.68
247.468	12900.86
247.539	12924.67
247.61	12879.26
247.681	12929.68
247.752	12997.56
247.823	12966.61
247.894	12991.48
247.965	12964.83
248.037	12951.72
248.108	12897
248.179	12914.36
248.25	12902.26
248.321	12939.42
248.392	12891.65
248.463	12982.18
248.534	12985.07
248.605	13009.41
248.675	12992.35
248.746	13011.34
248.817	13032.6
248.888	13048.41
248.959	12992.78
249.03	13021.9
249.101	13034.29
249.172	13023.01
249.243	12939.76
249.314	13012.07
249.385	13016.79
249.456	13047.02
249.527	13038.48
249.598	13075.22
249.669	13082.45
249.739	13096.14
249.81	13109.83
249.881	13063.07
249.952	13062.97
250.023	13057.86
250.094	12997.99
250.165	12952.44
250.235	12948.96
250.306	12949.4
250.377	12912.86
250.448	12940.09
250.519	12863.35
250.59	12929.73
250.66	12919.95
250.731	12997.17
250.802	12988.73
250.873	13003.73
250.944	13029.13
251.014	13017.95
251.085	13112.57
251.156	13138.17
251.227	13194.96
251.297	13250.2
251.368	13316.82
251.439	13349.36
251.51	13407.11
251.58	13397.81
251.651	13390.24
251.722	13445.1
251.792	13397.57
251.863	13411.31
251.934	13482.27
252.005	13611.5
252.075	13613.82
252.146	13672.2
252.217	13721.46
252.287	13775.12
252.358	13785.05
252.429	13859.19
252.499	13859.81
252.57	13860.83
252.641	13913.18
252.711	13914.82
252.782	13863
252.852	13943.6
252.923	13957.04
252.994	13969.58
253.064	14027.71
253.135	14021.4
253.205	14005.11
253.276	14087.68
253.347	14160.14
253.417	14143.22
253.488	14123.36
253.558	14115.02
253.629	14112.9
253.699	14127.07
253.77	14155.94
253.841	14149.48
253.911	14167.08
253.982	14181.06
254.052	14212.63
254.123	14215.52
254.193	14220.49
254.264	14373.39
254.334	14332.22
254.405	14286.62
254.475	14251.57
254.546	14258.47
254.616	14320.46
254.687	14349
254.757	14368.18
254.827	14367.22
254.898	14385.83
254.968	14396.67
255.039	14371.65
255.109	14421.3
255.18	14391.27
255.25	14320.8
255.321	14358.2
255.391	14308.84
255.461	14403.08
255.532	14316.61
255.602	14305.09
255.673	14255.14
255.743	14214.51
255.813	14145.67
255.884	14202.32
255.954	14239.77
256.024	14304.46
256.095	14302.97
256.165	14266.86
256.235	14298.53
256.306	14283.44
256.376	14328.08
256.446	14364.71
256.517	14410.61
256.587	14445.6
256.657	14471.25
256.728	14493.66
256.798	14499.01
256.868	14502.97
256.938	14473.61
257.009	14522.97
257.079	14563.18
257.149	14668.02
257.219	14605.45
257.29	14643.92
257.36	14579.18
257.43	14627.34
257.5	14557.1
257.571	14550.84
257.641	14598.66
257.711	14557.06
257.781	14591.96
257.852	14611.91
257.922	14546.11
257.992	14542.98
258.062	14542.64
258.132	14589.54
258.202	14595.18
258.273	14611.38
258.343	14684.94
258.413	14672.21
258.483	14682.72
258.553	14650.42
258.623	14622.76
258.693	14659.44
258.764	14736.37
258.834	14810.27
258.904	14822.76
258.974	14809.74
259.044	14825.17
259.114	14849.56
259.184	14883.3
259.254	14885.47
259.324	14832.88
259.394	14884.94
259.464	14971.47
259.535	14972.19
259.605	14959.32
259.675	14953.44
259.745	14992.77
259.815	14965.2
259.885	14961.05
259.955	15074.94
260.025	15065.35
260.095	15076.49
260.165	15098.61
260.235	15154.33
260.305	15141.07
260.375	15106.66
260.445	15212.46
260.515	15289.39
260.585	15340.73
260.655	15344.82
260.725	15396.01
260.795	15431.44
260.865	15501.05
260.934	15459.5
261.004	15492.13
261.074	15496.66
261.144	15557.2
261.214	15593.21
261.284	15604.63
261.354	15654.81
261.424	15610.72
261.494	15691.55
261.564	15697.19
261.634	15733.01
261.703	15668.03
261.773	15691.84
261.843	15732.29
261.913	15719.32
261.983	15647.07
262.053	15668.51
262.123	15659.02
262.192	15615.11
262.262	15666.54
262.332	15617.13
262.402	15659.69
262.472	15673.72
262.541	15616.74
