Data from 20250701_urea_2M_exp3_MAYP1162681_19-39-51-739.txt Node
Date: Tue Jul 01 19:39:51 BST 2025
User: adleo
Spectrometer: MAYP116268
Trigger mode: 0
Integration Time (sec): 4.000000E0
Scans to average: 1
Electric dark correction enabled: true
Nonlinearity correction enabled: true
Boxcar width: 10
XAxis mode: Wavelengths
Number of Pixels in Spectrum: 2068
>>>>>Begin Spectral Data<<<<<
179.565	3971.26
179.642	4184.9
179.718	4343.49
179.795	4487.49
179.871	4611.08
179.948	4679.24
180.024	4756.03
180.101	4844.61
180.177	4903.23
180.254	4986.68
180.33	5073.85
180.407	5360.45
180.483	5672.59
180.56	5988.63
180.636	6277.55
180.712	6238.84
180.789	6280.03
180.865	6326.28
180.942	6358.52
181.018	6400.72
181.095	6453.51
181.171	6473.53
181.248	6474.01
181.324	6533
181.4	6558.5
181.477	6597.16
181.553	6647.41
181.63	6726.08
181.706	6786.33
181.782	6812.92
181.859	6814.41
181.935	6829.54
182.011	6822.87
182.088	6881.53
182.164	6947.23
182.24	6998.66
182.317	7032.42
182.393	7022.1
182.469	7073.31
182.546	7126.64
182.622	7140.82
182.698	7127.89
182.775	7169.07
182.851	7219.66
182.927	7194.24
183.003	7181.95
183.08	7160.47
183.156	7193.82
183.232	7180.79
183.308	7135.05
183.385	7172.32
183.461	7234.95
183.537	7239.51
183.613	7284.97
183.69	7253.25
183.766	7221.08
183.842	7247.76
183.918	7263.62
183.995	7312.49
184.071	7321.34
184.147	7297.35
184.223	7254.95
184.299	7295.09
184.375	7255.21
184.452	7277.91
184.528	7409.3
184.604	7444.18
184.68	7484.11
184.756	7510.65
184.832	7528.49
184.908	7543.43
184.985	7528
185.061	7468.02
185.137	7496.39
185.213	7458.08
185.289	7460.39
185.365	7428.82
185.441	7420.89
185.517	7473.7
185.593	7457.59
185.669	7451.2
185.745	7488.12
185.822	7546.19
185.898	7523.93
185.974	7559.53
186.05	7536.06
186.126	7462.8
186.202	7438.72
186.278	7430.75
186.354	7394.3
186.43	7415.7
186.506	7412.05
186.582	7412.87
186.658	7436.07
186.734	7370
186.81	7374.52
186.886	7390.71
186.962	7438.29
187.038	7426.32
187.114	7393.03
187.19	7420.63
187.266	7385.69
187.341	7388.77
187.417	7363.87
187.493	7355.56
187.569	7363.97
187.645	7339.55
187.721	7296.57
187.797	7326.79
187.873	7336.17
187.949	7315.22
188.025	7291.7
188.101	7305.1
188.176	7325.14
188.252	7312.46
188.328	7339.11
188.404	7344.3
188.48	7321.77
188.556	7298.31
188.632	7295.18
188.707	7305.86
188.783	7296.2
188.859	7279.1
188.935	7237.18
189.011	7263.42
189.086	7241.46
189.162	7212
189.238	7201.48
189.314	7194.12
189.39	7168.46
189.465	7150.19
189.541	7208.79
189.617	7151.8
189.693	7130.76
189.768	7142.78
189.844	7234.68
189.92	7206.63
189.996	7227.93
190.071	7267.24
190.147	7259.22
190.223	7296
190.298	7263.73
190.374	7218.03
190.45	7260.21
190.526	7289.43
190.601	7273.62
190.677	7276.5
190.753	7382.28
190.828	7402.02
190.904	7452.9
190.98	7511.65
191.055	7544.67
191.131	7515.39
191.207	7595.32
191.282	7630.2
191.358	7599.78
191.433	7542.14
191.509	7586.96
191.585	7583.6
191.66	7586.63
191.736	7621.04
191.811	7584.36
191.887	7644.58
191.963	7733.53
192.038	7755.84
192.114	7761.85
192.189	7776.03
192.265	7768.05
192.34	7683.04
192.416	7675.11
192.491	7660.15
192.567	7671.7
192.642	7684.69
192.718	7691.08
192.793	7648.96
192.869	7631.85
192.944	7638.96
193.02	7665.41
193.095	7681.71
193.171	7700.51
193.246	7696.85
193.322	7685.99
193.397	7690.94
193.473	7640.86
193.548	7570.79
193.624	7587.1
193.699	7581.23
193.775	7636.07
193.85	7645.19
193.925	7681.55
194.001	7678.81
194.076	7653.62
194.152	7612.49
194.227	7582.19
194.302	7536.55
194.378	7548.76
194.453	7543.85
194.529	7588.86
194.604	7536.31
194.679	7510.01
194.755	7444.9
194.83	7493.73
194.905	7481.86
194.981	7514.12
195.056	7488.02
195.131	7510.95
195.207	7501.19
195.282	7470.52
195.357	7403.67
195.433	7459.91
195.508	7414.04
195.583	7444.23
195.659	7491.07
195.734	7518.29
195.809	7519.39
195.884	7559.61
195.96	7554.46
196.035	7609.42
196.11	7591.62
196.185	7634.45
196.261	7655.17
196.336	7764.22
196.411	7711.39
196.486	7737.26
196.561	7711.87
196.637	7738.45
196.712	7795.17
196.787	7806.76
196.862	7859.02
196.937	7895.71
197.013	7909.9
197.088	7951.59
197.163	8024.3
197.238	8085.87
197.313	8082.98
197.388	8129.25
197.464	8234.78
197.539	8277.73
197.614	8253.49
197.689	8301.7
197.764	8360.99
197.839	8426.47
197.914	8403.95
197.989	8481.32
198.065	8523.13
198.14	8704.35
198.215	8802.57
198.29	8847.01
198.365	8891.2
198.44	8931.52
198.515	9029.44
198.59	9086.97
198.665	9179.35
198.74	9209.12
198.815	9216.29
198.89	9294.22
198.965	9394.29
199.04	9381.58
199.115	9435.16
199.19	9590.14
199.265	9600.87
199.34	9633.43
199.415	9756.65
199.49	9833.3
199.565	9864.6
199.64	9954.95
199.715	9944.93
199.79	9967.18
199.865	9988.33
199.94	9992.85
200.015	10101.63
200.09	10120.61
200.165	10143.92
200.24	10162.81
200.315	10298.37
200.39	10349.82
200.464	10375.16
200.539	10381.52
200.614	10437.25
200.689	10521.71
200.764	10533.27
200.839	10596.12
200.914	10617.8
200.989	10575.25
201.063	10622.32
201.138	10565.36
201.213	10563.33
201.288	10491.31
201.363	10507.45
201.438	10507.3
201.512	10562.89
201.587	10499.38
201.662	10507.19
201.737	10547.08
201.812	10573.58
201.886	10461.58
201.961	10488.66
202.036	10445.94
202.111	10438.42
202.186	10334.51
202.26	10276.97
202.335	10206.83
202.41	10179.95
202.485	10119.79
202.559	10051.54
202.634	9958.48
202.709	9989.43
202.784	9920.02
202.858	9919.93
202.933	9856.74
203.008	9830.15
203.082	9756.03
203.157	9749.24
203.232	9597.99
203.306	9518.46
203.381	9404.17
203.456	9321.49
203.53	9248.44
203.605	9178.32
203.68	9090.52
203.754	9066.66
203.829	9007
203.904	8930.95
203.978	8888.96
204.053	8901.82
204.127	8857.25
204.202	8853.15
204.277	8788.18
204.351	8767.1
204.426	8743.46
204.5	8712.46
204.575	8584.92
204.65	8620.02
204.724	8593.53
204.799	8621.86
204.873	8613
204.948	8607.18
205.022	8561.09
205.097	8522.81
205.171	8568.13
205.246	8595.33
205.32	8590.28
205.395	8594.86
205.469	8568.94
205.544	8587.57
205.618	8526.15
205.693	8568.08
205.767	8522.22
205.842	8602.65
205.916	8574.02
205.991	8528.93
206.065	8543.94
206.14	8605.72
206.214	8589.4
206.289	8568.02
206.363	8617.5
206.438	8623.76
206.512	8647.97
206.586	8719.75
206.661	8745.18
206.735	8673.65
206.81	8679.38
206.884	8736.64
206.958	8685.78
207.033	8742.64
207.107	8770.91
207.181	8884.83
207.256	8864.32
207.33	8934.05
207.405	8973.89
207.479	9044.89
207.553	9074
207.628	9021.37
207.702	9056.5
207.776	9032.67
207.851	9039.8
207.925	9086.99
207.999	9077.03
208.073	9070
208.148	9080.25
208.222	9042.36
208.296	9152.94
208.371	9213.39
208.445	9245.66
208.519	9350.64
208.593	9389.4
208.668	9378.85
208.742	9383.57
208.816	9385.16
208.89	9431.54
208.965	9422.53
209.039	9454.47
209.113	9523.67
209.187	9599.26
209.261	9589.06
209.336	9662.01
209.41	9734.74
209.484	9735.61
209.558	9808.86
209.632	9860.05
209.707	9903.01
209.781	9985.8
209.855	10039.61
209.929	10100
210.003	10126.93
210.077	10121.73
210.151	10291.12
210.226	10413.22
210.3	10512.99
210.374	10599.72
210.448	10609.89
210.522	10651.19
210.596	10685.49
210.67	10714.21
210.744	10883.82
210.818	11001.02
210.892	11071.76
210.966	11049.79
211.041	11109.59
211.115	11101.25
211.189	11187.75
211.263	11241.23
211.337	11260.89
211.411	11316.08
211.485	11296.32
211.559	11332.02
211.633	11344.54
211.707	11236.14
211.781	11255.33
211.855	11132.63
211.929	11097.32
212.003	11031.91
212.077	11065.55
212.151	11103.19
212.225	11131.91
212.299	11082.74
212.373	11036.44
212.447	11012.53
212.52	11114.31
212.594	11120.57
212.668	11155.8
212.742	11091.99
212.816	11074.69
212.89	11045.88
212.964	11027.99
213.038	11026.4
213.112	11066.07
213.186	11115.65
213.26	11036.46
213.333	10868.59
213.407	10873.89
213.481	10880.54
213.555	10915.02
213.629	10862.78
213.703	10788.76
213.777	10780.42
213.85	10705.87
213.924	10813.44
213.998	10805.01
214.072	10770.4
214.146	10714.26
214.219	10689.88
214.293	10673.3
214.367	10661.84
214.441	10691.9
214.515	10645.25
214.588	10552.94
214.662	10415.59
214.736	10321.22
214.81	10331.57
214.883	10350.11
214.957	10296.12
215.031	10235.5
215.105	10137.93
215.178	10071.45
215.252	10035.66
215.326	9926.36
215.4	9829.78
215.473	9639.68
215.547	9553.69
215.621	9477.03
215.694	9470.1
215.768	9367.04
215.842	9291.11
215.915	9215.1
215.989	9092.05
216.063	9025.92
216.136	9000.21
216.21	8976.24
216.284	8987.02
216.357	8954.43
216.431	8906.87
216.504	8901.58
216.578	8960.51
216.652	8972.25
216.725	8947.12
216.799	8952.03
216.873	8932.54
216.946	8945.53
217.02	8901.9
217.093	8864.3
217.167	8762.08
217.24	8675.6
217.314	8641.31
217.387	8596.96
217.461	8546.33
217.535	8567.41
217.608	8502.59
217.682	8472.8
217.755	8489.98
217.829	8430.82
217.902	8420.96
217.976	8398.87
218.049	8347.68
218.123	8272.33
218.196	8270.89
218.27	8236.58
218.343	8155.34
218.417	8148.84
218.49	8121.75
218.563	8170.15
218.637	8179.29
218.71	8255.22
218.784	8282.56
218.857	8317.19
218.931	8334.65
219.004	8346
219.077	8366.32
219.151	8383.54
219.224	8373.77
219.298	8364.44
219.371	8410.64
219.444	8366.44
219.518	8380.82
219.591	8401.46
219.665	8506.19
219.738	8517.21
219.811	8493.93
219.885	8546.42
219.958	8580.4
220.031	8582.91
220.105	8605.43
220.178	8613.23
220.251	8586.42
220.325	8604.71
220.398	8617.32
220.471	8641.47
220.544	8678.58
220.618	8653.45
220.691	8684.78
220.764	8700.51
220.838	8731.56
220.911	8713.17
220.984	8801.81
221.057	8840.89
221.131	8859.65
221.204	8763.63
221.277	8843.94
221.35	8972.37
221.424	8972.27
221.497	8988.74
221.57	9015.44
221.643	9049.39
221.716	9101.06
221.79	9107.27
221.863	9123.3
221.936	9141.26
222.009	9158.01
222.082	9189.21
222.155	9192.72
222.229	9261.93
222.302	9296.78
222.375	9297.65
222.448	9346.57
222.521	9357.31
222.594	9355.81
222.667	9331.23
222.74	9381.97
222.814	9371.23
222.887	9356.58
222.96	9406.9
223.033	9445.58
223.106	9475.95
223.179	9509.82
223.252	9516.04
223.325	9547.38
223.398	9556.29
223.471	9587.2
223.544	9606.75
223.617	9611.95
223.69	9646.23
223.763	9599.9
223.837	9627.3
223.91	9657.59
223.983	9602.32
224.056	9563.46
224.129	9586.86
224.202	9652.95
224.275	9640.48
224.348	9607.06
224.42	9565.79
224.493	9506.03
224.566	9482.71
224.639	9505.59
224.712	9472.44
224.785	9457.51
224.858	9445.33
224.931	9432.95
225.004	9385.38
225.077	9387.31
225.15	9298.59
225.223	9290.35
225.296	9384.59
225.369	9322.86
225.442	9290.5
225.514	9311.49
225.587	9334.55
225.66	9344.52
225.733	9340.09
225.806	9354.1
225.879	9350.39
225.952	9320.93
226.025	9366.96
226.097	9419.52
226.17	9404.88
226.243	9335.75
226.316	9329.92
226.389	9338.88
226.461	9357.52
226.534	9382.26
226.607	9370.9
226.68	9460.92
226.753	9462.36
226.825	9366.45
226.898	9431.25
226.971	9436.79
227.044	9458.65
227.117	9470.4
227.189	9488.56
227.262	9531
227.335	9547.28
227.407	9542.03
227.48	9578.18
227.553	9599.67
227.626	9581.45
227.698	9589.16
227.771	9630.12
227.844	9615.48
227.916	9632.96
227.989	9600.07
228.062	9600.89
228.134	9695.44
228.207	9697.27
228.28	9688.55
228.352	9703.96
228.425	9711.29
228.498	9762.82
228.57	9741.44
228.643	9795.5
228.716	9789.33
228.788	9769.82
228.861	9769.19
228.934	9832.76
229.006	9843.36
229.079	9845.91
229.151	9831.46
229.224	9796.55
229.296	9825.06
229.369	9935.15
229.442	9987.9
229.514	9965.08
229.587	10009.64
229.659	9931.89
229.732	9945.57
229.804	9989.2
229.877	10080.31
229.949	10111.77
230.022	10170.81
230.094	10167.44
230.167	10157.85
230.239	10115.08
230.312	10107.38
230.384	10176.67
230.457	10174.26
230.529	10180.13
230.602	10180.9
230.674	10188.61
230.747	10236.91
230.819	10273.37
230.892	10145.86
230.964	10146.05
231.037	10175.18
231.109	10160.2
231.181	10207.01
231.254	10172.23
231.326	10150.51
231.399	10121.06
231.471	10096.4
231.544	10005.04
231.616	10054.4
231.688	10064.28
231.761	10060.62
231.833	10048.34
231.905	9959.21
231.978	9961.57
232.05	9945.48
232.122	9948.08
232.195	9927.56
232.267	9965.67
232.339	9943.31
232.412	10012.38
232.484	9984.48
232.556	9959.2
232.629	10041.36
232.701	10051.72
232.773	10061.97
232.846	10056.77
232.918	10066.89
232.99	10076.48
233.062	10124.42
233.135	10141.57
233.207	10097.82
233.279	10139.33
233.351	10174.45
233.424	10181.96
233.496	10158.45
233.568	10257.41
233.64	10224.13
233.713	10237.13
233.785	10231.11
233.857	10240.07
233.929	10190.51
234.001	10260.67
234.074	10335.42
234.146	10249.65
234.218	10254.95
234.29	10256.06
234.362	10248.69
234.434	10201.23
234.507	10166.69
234.579	10109.99
234.651	10087.83
234.723	10124.05
234.795	10147.66
234.867	10141.88
234.939	10205.09
235.012	10227.2
235.084	10218.33
235.156	10255.76
235.228	10240.34
235.3	10228.01
235.372	10249.07
235.444	10312.94
235.516	10231.65
235.588	10239.4
235.66	10262.86
235.732	10235.84
235.804	10441.97
235.876	10487.78
235.948	10553.94
236.02	10574.21
236.092	10593.91
236.164	10610.44
236.236	10615.55
236.308	10614.58
236.38	10639.35
236.452	10616.6
236.524	10636.6
236.596	10714.06
236.668	10746.92
236.74	10767.1
236.812	10798.03
236.884	10828.25
236.956	10837.41
237.028	10833.26
237.1	10810.96
237.172	10891.24
237.244	10969.5
237.316	10848.94
237.388	10831.31
237.46	10808.37
237.532	10876.5
237.604	10868.65
237.675	10949.76
237.747	10996.31
237.819	10984.7
237.891	10997.37
237.963	10988.94
238.035	10987.83
238.107	10867.78
238.178	10942.58
238.25	10954.63
238.322	11050.74
238.394	11004.04
238.466	11004.19
238.538	11057.43
238.609	11106.43
238.681	11043.92
238.753	11025.99
238.825	11043.44
238.897	11084.35
238.968	11172.65
239.04	11148.84
239.112	11270.47
239.184	11228.44
239.255	11224.54
239.327	11261.98
239.399	11284.19
239.471	11337.01
239.542	11373.15
239.614	11456.28
239.686	11362.44
239.758	11421.72
239.829	11383.2
239.901	11454.77
239.973	11477.42
240.044	11507.64
240.116	11521.85
240.188	11538.09
240.259	11553.28
240.331	11542.87
240.403	11578.96
240.474	11526.71
240.546	11523.72
240.618	11456.34
240.689	11457.5
240.761	11476.68
240.833	11549.12
240.904	11554.04
240.976	11551.15
241.048	11574.09
241.119	11602.82
241.191	11652.84
241.262	11731.85
241.334	11738.98
241.405	11744.19
241.477	11744.77
241.549	11755.52
241.62	11784.77
241.692	11838.56
241.763	11905.85
241.835	11932.56
241.906	11944.94
241.978	11912.03
242.049	11982.73
242.121	12051.9
242.192	12124.87
242.264	12095.09
242.335	12049.2
242.407	12096.19
242.478	12106.65
242.55	12126.37
242.621	12119.28
242.693	12125.11
242.764	12111.13
242.836	12116
242.907	12151.62
242.979	12186.14
243.05	12210.38
243.122	12235.74
243.193	12237.62
243.264	12158.61
243.336	12166.42
243.407	12216.65
243.479	12309.87
243.55	12328.62
243.622	12345.64
243.693	12346.94
243.764	12423.58
243.836	12402.28
243.907	12389.02
243.978	12398.76
244.05	12430.91
244.121	12376.93
244.192	12420.5
244.264	12370.8
244.335	12384.83
244.407	12333.98
244.478	12357.84
244.549	12349.55
244.62	12305.15
244.692	12302.74
244.763	12355.96
244.834	12350.17
244.906	12322.31
244.977	12340.19
245.048	12399.1
245.119	12381.51
245.191	12354.95
245.262	12285.2
245.333	12367.38
245.405	12387.29
245.476	12422.81
245.547	12441.23
245.618	12503.12
245.689	12521.82
245.761	12561.83
245.832	12568.92
245.903	12611.14
245.974	12637.9
246.045	12649.8
246.117	12737.87
246.188	12721.1
246.259	12704.9
246.33	12719.7
246.401	12735.71
246.473	12704.32
246.544	12684.12
246.615	12744.04
246.686	12749.88
246.757	12832.79
246.828	12805.7
246.899	12882.34
246.97	12847.54
247.042	12835.3
247.113	12881.19
247.184	12975.91
247.255	12970.32
247.326	13005.13
247.397	13016.79
247.468	13024.79
247.539	13046.73
247.61	13004.02
247.681	13058.44
247.752	13111.71
247.823	13091.7
247.894	13111.27
247.965	13084.76
248.037	13072.27
248.108	13015.58
248.179	13023.1
248.25	13017.17
248.321	13045.28
248.392	13001.75
248.463	13086.39
248.534	13084.18
248.605	13101.97
248.675	13064.9
248.746	13086.64
248.817	13094.25
248.888	13120.86
248.959	13071.02
249.03	13098.69
249.101	13107.61
249.172	13090.06
249.243	13017.37
249.314	13081.1
249.385	13081.43
249.456	13112.43
249.527	13111.32
249.598	13137.26
249.669	13142.37
249.739	13153.55
249.81	13174.71
249.881	13122.89
249.952	13118.65
250.023	13113.3
250.094	13059.98
250.165	13033.03
250.235	13022.96
250.306	13034.72
250.377	13000.01
250.448	13029.66
250.519	12964.44
250.59	13030.53
250.66	13029.81
250.731	13109.82
250.802	13108.72
250.873	13134.94
250.944	13159.72
251.014	13152.63
251.085	13252.32
251.156	13278.55
251.227	13331.72
251.297	13384.41
251.368	13446.3
251.439	13488.68
251.51	13544.79
251.58	13536.59
251.651	13532.16
251.722	13594.39
251.792	13536.69
251.863	13541.75
251.934	13606.68
252.005	13726.28
252.075	13732.79
252.146	13787.02
252.217	13832.43
252.287	13877.31
252.358	13876.98
252.429	13954.59
252.499	13945.91
252.57	13951.6
252.641	14006.07
252.711	14015.81
252.782	13971.17
252.852	14052.3
252.923	14051.86
252.994	14064.3
253.064	14113.13
253.135	14097.76
253.205	14080.84
253.276	14168.57
253.347	14234.76
253.417	14211.86
253.488	14187.85
253.558	14170.21
253.629	14170.65
253.699	14192.96
253.77	14228.78
253.841	14230.66
253.911	14233.55
253.982	14253.08
254.052	14287.49
254.123	14293.18
254.193	14296.02
254.264	14443.38
254.334	14402.36
254.405	14371.26
254.475	14345.28
254.546	14352.85
254.616	14416.39
254.687	14453.55
254.757	14474.14
254.827	14479.78
254.898	14512.27
254.968	14518.24
255.039	14506.24
255.109	14544.23
255.18	14505.42
255.25	14426.9
255.321	14459.29
255.391	14423.23
255.461	14518.73
255.532	14428.97
255.602	14424.87
255.673	14363.03
255.743	14329.91
255.813	14258.86
255.884	14310.97
255.954	14347.56
256.024	14417.84
256.095	14423
256.165	14380.91
256.235	14408.15
256.306	14395.57
256.376	14433.02
256.446	14478.48
256.517	14503.69
256.587	14546.06
256.657	14573.83
256.728	14600.1
256.798	14617.16
256.868	14604.44
256.938	14566.4
257.009	14619.38
257.079	14655.63
257.149	14756.72
257.219	14679.21
257.29	14730.26
257.36	14670.72
257.43	14718.83
257.5	14649.08
257.571	14641.41
257.641	14684.75
257.711	14645.27
257.781	14676.75
257.852	14700.66
257.922	14646.57
257.992	14659.68
258.062	14659.11
258.132	14699.21
258.202	14707.16
258.273	14718.01
258.343	14805.55
258.413	14796.15
258.483	14806.66
258.553	14774.17
258.623	14766.4
258.693	14803.81
258.764	14862.86
258.834	14934.88
258.904	14946.16
258.974	14938.64
259.044	14952.19
259.114	14975.52
259.184	15008.34
259.254	15018.66
259.324	14962.07
259.394	15004.63
259.464	15093.71
259.535	15104.12
259.605	15101.56
259.675	15100.5
259.745	15139.4
259.815	15110.63
259.885	15109.47
259.955	15216.23
260.025	15214.97
260.095	15219.65
260.165	15263.99
260.235	15329.35
260.305	15314.41
260.375	15283.27
260.445	15381.9
260.515	15441.62
260.585	15496.13
260.655	15500.08
260.725	15546.26
260.795	15586.7
260.865	15658.76
260.934	15619.09
261.004	15645.65
261.074	15646.13
261.144	15697.42
261.214	15729.19
261.284	15732.41
261.354	15775.17
261.424	15727.94
261.494	15799.86
261.564	15800.78
261.634	15822.27
261.703	15760
261.773	15791.57
261.843	15830.85
261.913	15815.77
261.983	15761.35
262.053	15780.92
262.123	15782.07
262.192	15739.95
262.262	15782.65
262.332	15734.31
262.402	15773.45
262.472	15781.98
262.541	15723.46
262.611	15785.83
