Data from 20250701_urea_2M_exp3_MAYP1162681_17-19-52-446.txt Node
Date: Tue Jul 01 17:19:52 BST 2025
User: adleo
Spectrometer: MAYP116268
Trigger mode: 0
Integration Time (sec): 4.000000E0
Scans to average: 1
Electric dark correction enabled: true
Nonlinearity correction enabled: true
Boxcar width: 10
XAxis mode: Wavelengths
Number of Pixels in Spectrum: 2068
>>>>>Begin Spectral Data<<<<<
179.565	4113.58
179.642	4322.63
179.718	4487.19
179.795	4635.94
179.871	4768.22
179.948	4834.7
180.024	4914.41
180.101	5002.79
180.177	5060.11
180.254	5148.1
180.33	5235.1
180.407	5532.95
180.483	5851.19
180.56	6173.03
180.636	6466.85
180.712	6423.57
180.789	6457.38
180.865	6505.51
180.942	6531.91
181.018	6570.8
181.095	6622.45
181.171	6639.93
181.248	6644.45
181.324	6703.16
181.4	6735.44
181.477	6774.22
181.553	6826.83
181.63	6900.86
181.706	6958.04
181.782	6985.12
181.859	6983.24
181.935	7002.66
182.011	6989.06
182.088	7051.05
182.164	7124.85
182.24	7181.62
182.317	7214.62
182.393	7205.69
182.469	7260.09
182.546	7310.88
182.622	7331.55
182.698	7315.44
182.775	7359.56
182.851	7411.56
182.927	7385.7
183.003	7362.98
183.08	7334.53
183.156	7368.7
183.232	7358.27
183.308	7314.1
183.385	7344.85
183.461	7406.38
183.537	7406.91
183.613	7453.29
183.69	7421.13
183.766	7381.93
183.842	7402.89
183.918	7425.24
183.995	7475.32
184.071	7478.16
184.147	7464.41
184.223	7419.98
184.299	7459.88
184.375	7418.36
184.452	7441.01
184.528	7580.42
184.604	7619.93
184.68	7668.09
184.756	7695.26
184.832	7714.54
184.908	7737.41
184.985	7733.09
185.061	7677.52
185.137	7709.78
185.213	7671.86
185.289	7679.02
185.365	7654.6
185.441	7657.58
185.517	7707.37
185.593	7692.76
185.669	7685.74
185.745	7721.18
185.822	7786.29
185.898	7758.68
185.974	7796.07
186.05	7771.16
186.126	7682.77
186.202	7664.31
186.278	7645.27
186.354	7606.7
186.43	7627.48
186.506	7617.63
186.582	7622.87
186.658	7645.02
186.734	7574.37
186.81	7582.01
186.886	7593.5
186.962	7634.79
187.038	7614.5
187.114	7579.09
187.19	7612.51
187.266	7579.2
187.341	7571.7
187.417	7539.92
187.493	7541.99
187.569	7557.18
187.645	7531.08
187.721	7489.48
187.797	7514.53
187.873	7531.36
187.949	7513.62
188.025	7492.07
188.101	7510.24
188.176	7526.01
188.252	7514.04
188.328	7539.5
188.404	7541.9
188.48	7521.86
188.556	7497.29
188.632	7498.54
188.707	7503.73
188.783	7488.39
188.859	7474.36
188.935	7441.96
189.011	7468.39
189.086	7441.67
189.162	7403.98
189.238	7398.21
189.314	7393.41
189.39	7363.17
189.465	7340.19
189.541	7396.11
189.617	7342.9
189.693	7319.25
189.768	7333.1
189.844	7420.07
189.92	7395.95
189.996	7424.7
190.071	7463.84
190.147	7461.87
190.223	7494.57
190.298	7467.97
190.374	7419.95
190.45	7460.56
190.526	7489.79
190.601	7472
190.677	7478.49
190.753	7579.95
190.828	7593.12
190.904	7648.81
190.98	7714.16
191.055	7753.11
191.131	7726.85
191.207	7803.87
191.282	7836.89
191.358	7799.34
191.433	7745.74
191.509	7797.21
191.585	7785.04
191.66	7782.64
191.736	7813.55
191.811	7780.9
191.887	7844.02
191.963	7931.63
192.038	7949.43
192.114	7950.2
192.189	7971.73
192.265	7962.17
192.34	7885.28
192.416	7878.21
192.491	7864.07
192.567	7868.35
192.642	7881.29
192.718	7882.54
192.793	7836.32
192.869	7822.57
192.944	7833.1
193.02	7860.23
193.095	7867.83
193.171	7891.25
193.246	7893.94
193.322	7880.47
193.397	7883.84
193.473	7824.71
193.548	7762.13
193.624	7781.76
193.699	7775.94
193.775	7829.97
193.85	7838.48
193.925	7867.48
194.001	7868.49
194.076	7839.11
194.152	7803.12
194.227	7771.18
194.302	7729.03
194.378	7743.22
194.453	7735.67
194.529	7784.82
194.604	7730.24
194.679	7706.11
194.755	7638.77
194.83	7680.05
194.905	7668.13
194.981	7700.06
195.056	7678.14
195.131	7698.77
195.207	7697.86
195.282	7668.67
195.357	7600.89
195.433	7655.42
195.508	7611.27
195.583	7641.99
195.659	7692.01
195.734	7710.97
195.809	7706.25
195.884	7745.56
195.96	7746.86
196.035	7804.33
196.11	7783.55
196.185	7833.8
196.261	7855
196.336	7967.34
196.411	7924.22
196.486	7947.69
196.561	7920.37
196.637	7950.56
196.712	8012.44
196.787	8020.29
196.862	8074.87
196.937	8110.07
197.013	8126.67
197.088	8162.69
197.163	8242.35
197.238	8308.31
197.313	8317.69
197.388	8365.8
197.464	8475.2
197.539	8514.36
197.614	8487.42
197.689	8532.84
197.764	8592.97
197.839	8664.81
197.914	8643.11
197.989	8722.04
198.065	8769.92
198.14	8954.44
198.215	9052.53
198.29	9086.24
198.365	9131.88
198.44	9172.89
198.515	9271.49
198.59	9329.46
198.665	9429.46
198.74	9452.05
198.815	9455.23
198.89	9530.39
198.965	9645.6
199.04	9629.8
199.115	9685.21
199.19	9836.89
199.265	9850.8
199.34	9885.72
199.415	10003.72
199.49	10081.39
199.565	10114.04
199.64	10208.98
199.715	10196.11
199.79	10223.09
199.865	10246.17
199.94	10243.04
200.015	10354.23
200.09	10367.72
200.165	10397.3
200.24	10420.14
200.315	10568.58
200.39	10621.87
200.464	10646.87
200.539	10646.15
200.614	10702.99
200.689	10791.99
200.764	10821.77
200.839	10882.7
200.914	10899.33
200.989	10857.78
201.063	10907.85
201.138	10842.11
201.213	10834.06
201.288	10769.88
201.363	10784.29
201.438	10784.63
201.512	10844.31
201.587	10773.62
201.662	10790.15
201.737	10821.13
201.812	10848.26
201.886	10726.18
201.961	10754.95
202.036	10710.01
202.111	10700.32
202.186	10592.97
202.26	10531.82
202.335	10446.44
202.41	10425.09
202.485	10357.42
202.559	10291.56
202.634	10190.69
202.709	10222.32
202.784	10152.76
202.858	10147.42
202.933	10078.49
203.008	10053.53
203.082	9979.84
203.157	9979.07
203.232	9827.98
203.306	9758.7
203.381	9641.55
203.456	9560.45
203.53	9479.97
203.605	9409.31
203.68	9321.21
203.754	9300
203.829	9239.41
203.904	9166.04
203.978	9123.75
204.053	9142.1
204.127	9091.99
204.202	9090.93
204.277	9028.01
204.351	9010.44
204.426	8986.31
204.5	8958.54
204.575	8836.41
204.65	8871.8
204.724	8845.36
204.799	8872.97
204.873	8854.96
204.948	8845.62
205.022	8795.44
205.097	8763.75
205.171	8807.68
205.246	8838.36
205.32	8831.91
205.395	8828.73
205.469	8798.58
205.544	8822.75
205.618	8759.11
205.693	8799.74
205.767	8754.79
205.842	8838.99
205.916	8809.58
205.991	8772.23
206.065	8793.65
206.14	8854.49
206.214	8835.56
206.289	8806.39
206.363	8855.77
206.438	8860.88
206.512	8891.59
206.586	8967
206.661	8990.84
206.735	8913.49
206.81	8924.85
206.884	8979.57
206.958	8935.68
207.033	8997.51
207.107	9019.23
207.181	9134.17
207.256	9111.16
207.33	9177.78
207.405	9221.86
207.479	9296.82
207.553	9323.97
207.628	9262.76
207.702	9300.45
207.776	9274.02
207.851	9288.08
207.925	9339.52
207.999	9330.81
208.073	9322.04
208.148	9329.75
208.222	9294.07
208.296	9412.79
208.371	9468.29
208.445	9503.83
208.519	9610.14
208.593	9654
208.668	9640.56
208.742	9650.68
208.816	9661.95
208.89	9715.52
208.965	9702.56
209.039	9728.23
209.113	9788.92
209.187	9863.8
209.261	9847.86
209.336	9926.56
209.41	10002.57
209.484	9999.63
209.558	10082.63
209.632	10131.13
209.707	10172.41
209.781	10246.15
209.855	10308.55
209.929	10366.92
210.003	10399.34
210.077	10393.6
210.151	10565.61
210.226	10687.05
210.3	10786.2
210.374	10867.46
210.448	10879.31
210.522	10918.3
210.596	10962.39
210.67	10998.29
210.744	11171.28
210.818	11290.27
210.892	11360.59
210.966	11337.12
211.041	11396.78
211.115	11376.16
211.189	11464.2
211.263	11519.91
211.337	11547.38
211.411	11593.31
211.485	11570.03
211.559	11603.91
211.633	11615.71
211.707	11502.77
211.781	11530.83
211.855	11393.47
211.929	11364.03
212.003	11291.48
212.077	11324.31
212.151	11361.76
212.225	11389.61
212.299	11350.04
212.373	11304.93
212.447	11282.71
212.52	11384.55
212.594	11392.11
212.668	11435
212.742	11381.94
212.816	11364.3
212.89	11340.69
212.964	11328.39
213.038	11335.82
213.112	11376.26
213.186	11415.77
213.26	11325.73
213.333	11153.85
213.407	11168.83
213.481	11166.03
213.555	11208.13
213.629	11156.8
213.703	11082.1
213.777	11070.24
213.85	10982.87
213.924	11091.84
213.998	11085.43
214.072	11044.7
214.146	10981.14
214.219	10955.93
214.293	10933.53
214.367	10923.75
214.441	10940.76
214.515	10884.9
214.588	10783.23
214.662	10646.15
214.736	10557.26
214.81	10579.85
214.883	10595.36
214.957	10540.4
215.031	10483.86
215.105	10382.56
215.178	10315.55
215.252	10276.48
215.326	10167.55
215.4	10081.26
215.473	9885.65
215.547	9787.94
215.621	9721.88
215.694	9715.04
215.768	9609.75
215.842	9529.76
215.915	9447.87
215.989	9329.53
216.063	9270.61
216.136	9243.35
216.21	9214.23
216.284	9233.4
216.357	9196.03
216.431	9145.67
216.504	9143.84
216.578	9208.57
216.652	9221.32
216.725	9191.18
216.799	9193.97
216.873	9175.68
216.946	9177.84
217.02	9138.82
217.093	9105.7
217.167	8995.99
217.24	8911.96
217.314	8878.95
217.387	8828.83
217.461	8777.42
217.535	8801.15
217.608	8734.06
217.682	8707.05
217.755	8722.98
217.829	8656.93
217.902	8642.87
217.976	8628.77
218.049	8571.75
218.123	8485.55
218.196	8482.04
218.27	8444.6
218.343	8367.86
218.417	8364.2
218.49	8340.29
218.563	8386.58
218.637	8395.53
218.71	8476.49
218.784	8502.34
218.857	8537.89
218.931	8564.54
219.004	8580.32
219.077	8603.43
219.151	8623.83
219.224	8619.65
219.298	8615.7
219.371	8667.88
219.444	8627.04
219.518	8632.67
219.591	8655.86
219.665	8765.08
219.738	8781.15
219.811	8760.86
219.885	8812.4
219.958	8839.8
220.031	8846.05
220.105	8870.17
220.178	8879.32
220.251	8849.08
220.325	8873.06
220.398	8896.02
220.471	8921.28
220.544	8955.32
220.618	8928.55
220.691	8953.86
220.764	8969.99
220.838	9000.61
220.911	8982.5
220.984	9082.96
221.057	9125.75
221.131	9150.92
221.204	9050.56
221.277	9119.42
221.35	9252.1
221.424	9243.77
221.497	9261.3
221.57	9286.08
221.643	9320.18
221.716	9374.51
221.79	9378.26
221.863	9390.83
221.936	9394.59
222.009	9404.65
222.082	9445.93
222.155	9461.19
222.229	9530.5
222.302	9562.13
222.375	9563.48
222.448	9609.67
222.521	9607.16
222.594	9605.57
222.667	9578.62
222.74	9639.48
222.814	9633.51
222.887	9621.12
222.96	9681.91
223.033	9724.83
223.106	9754.29
223.179	9784.93
223.252	9800.4
223.325	9838.83
223.398	9857.66
223.471	9891.66
223.544	9915.54
223.617	9922.34
223.69	9938.85
223.763	9902.53
223.837	9927.19
223.91	9961.01
223.983	9903.27
224.056	9862.53
224.129	9890.03
224.202	9953.15
224.275	9936.19
224.348	9911.39
224.42	9869.48
224.493	9804.99
224.566	9782.49
224.639	9807.83
224.712	9779.83
224.785	9758.59
224.858	9740.43
224.931	9718.75
225.004	9674.74
225.077	9674.64
225.15	9580.17
225.223	9583.83
225.296	9677.84
225.369	9615.43
225.442	9580.41
225.514	9604.68
225.587	9629.28
225.66	9644.51
225.733	9641.09
225.806	9657.03
225.879	9642.39
225.952	9620.77
226.025	9672.83
226.097	9724.39
226.17	9716.68
226.243	9647.91
226.316	9645.6
226.389	9662.27
226.461	9681.87
226.534	9703.25
226.607	9699.16
226.68	9787.27
226.753	9776.24
226.825	9675.44
226.898	9742.33
226.971	9750.56
227.044	9774.6
227.117	9783.99
227.189	9801.33
227.262	9843.05
227.335	9863.09
227.407	9866.85
227.48	9897.62
227.553	9914.43
227.626	9895.73
227.698	9900.07
227.771	9944.75
227.844	9924.57
227.916	9941.23
227.989	9905.93
228.062	9906.02
228.134	10001.85
228.207	10005.85
228.28	10005.75
228.352	10027.33
228.425	10032.58
228.498	10078.83
228.57	10052.05
228.643	10120.99
228.716	10115.69
228.788	10107.26
228.861	10103.89
228.934	10174.75
229.006	10186.5
229.079	10189.39
229.151	10180.81
229.224	10150.76
229.296	10177.6
229.369	10291.17
229.442	10343.16
229.514	10326.31
229.587	10371.1
229.659	10287.61
229.732	10302.88
229.804	10343.73
229.877	10427.38
229.949	10466.56
230.022	10528.97
230.094	10533.49
230.167	10515.76
230.239	10468.94
230.312	10454.73
230.384	10531.54
230.457	10523.98
230.529	10532.21
230.602	10538.38
230.674	10551.97
230.747	10593.92
230.819	10632.32
230.892	10503.77
230.964	10508.93
231.037	10544.04
231.109	10541.39
231.181	10585.95
231.254	10553.23
231.326	10542.06
231.399	10522.1
231.471	10487.17
231.544	10401.63
231.616	10448.69
231.688	10462.67
231.761	10452.02
231.833	10440.42
231.905	10350.55
231.978	10345
232.05	10327.95
232.122	10325.25
232.195	10295.09
232.267	10339.03
232.339	10306.51
232.412	10379.83
232.484	10350.43
232.556	10325
232.629	10401.24
232.701	10420.32
232.773	10438.39
232.846	10432.85
232.918	10435.55
232.99	10457.13
233.062	10507.53
233.135	10523.15
233.207	10487.63
233.279	10539.36
233.351	10581.81
233.424	10581.42
233.496	10566.73
233.568	10664.35
233.64	10631.2
233.713	10650.77
233.785	10643.1
233.857	10663.68
233.929	10610.06
234.001	10684.57
234.074	10755
234.146	10674.95
234.218	10672.64
234.29	10671.67
234.362	10655.3
234.434	10606.38
234.507	10576.27
234.579	10515.42
234.651	10493.93
234.723	10528.09
234.795	10548.18
234.867	10537.29
234.939	10609.86
235.012	10624.79
235.084	10625.71
235.156	10664.59
235.228	10651.87
235.3	10642.28
235.372	10658.91
235.444	10720.72
235.516	10637.34
235.588	10650.79
235.66	10672.13
235.732	10650.98
235.804	10857.9
235.876	10910.55
235.948	10983.04
236.02	10997.92
236.092	11016.71
236.164	11038.68
236.236	11042.63
236.308	11044.9
236.38	11081.81
236.452	11054.44
236.524	11084.94
236.596	11158.45
236.668	11205.29
236.74	11235.46
236.812	11265.43
236.884	11302.11
236.956	11324.18
237.028	11317.39
237.1	11295.08
237.172	11375.08
237.244	11461.93
237.316	11343.25
237.388	11330.91
237.46	11307.54
237.532	11371.78
237.604	11368.89
237.675	11453.38
237.747	11500.75
237.819	11488.56
237.891	11492.47
237.963	11491.55
238.035	11493.96
238.107	11371.63
238.178	11435.74
238.25	11435.93
238.322	11537.79
238.394	11495.9
238.466	11499.47
238.538	11551.61
238.609	11603.18
238.681	11546.54
238.753	11518.63
238.825	11538.83
238.897	11573.33
238.968	11671.86
239.04	11663.38
239.112	11793.41
239.184	11742.51
239.255	11739.28
239.327	11785.69
239.399	11817.4
239.471	11867.67
239.542	11904.01
239.614	11983.92
239.686	11895.67
239.758	11961.99
239.829	11927.28
239.901	11999.77
239.973	12015.1
240.044	12047.25
240.116	12065.03
240.188	12080.26
240.259	12102.92
240.331	12099.93
240.403	12143.64
240.474	12089.89
240.546	12079.68
240.618	12012.19
240.689	12027.9
240.761	12056.2
240.833	12133.47
240.904	12130.1
240.976	12139.21
241.048	12160.17
241.119	12200.43
241.191	12257.59
241.262	12334.91
241.334	12339.78
241.405	12346.48
241.477	12349.23
241.549	12365.57
241.62	12391.17
241.692	12443.8
241.763	12510.81
241.835	12535.97
241.906	12559.01
241.978	12530.09
242.049	12607.02
242.121	12669.5
242.192	12747.15
242.264	12707.67
242.335	12652.29
242.407	12702.85
242.478	12707.34
242.55	12725.65
242.621	12709.26
242.693	12711.72
242.764	12699.62
242.836	12708.44
242.907	12747.68
242.979	12791.69
243.05	12818.64
243.122	12854.65
243.193	12865.26
243.264	12784.66
243.336	12788.32
243.407	12831.42
243.479	12919.63
243.55	12937.81
243.622	12964.95
243.693	12963.21
243.764	13044.92
243.836	13026.12
243.907	13018.12
243.978	13022.26
244.05	13060.39
244.121	13018.6
244.192	13064.45
244.264	13013.06
244.335	13028.72
244.407	12967.99
244.478	12978.49
244.549	12974.98
244.62	12923.01
244.692	12920.79
244.763	12974.54
244.834	12963.69
244.906	12942.96
244.977	12965.19
245.048	13023.81
245.119	12998.16
245.191	12971.36
245.262	12903.15
245.333	12990.73
245.405	13007.12
245.476	13046.41
245.547	13062.75
245.618	13125.47
245.689	13140.75
245.761	13188.18
245.832	13192.91
245.903	13246.56
245.974	13284.93
246.045	13302.91
246.117	13398.22
246.188	13377.44
246.259	13369.39
246.33	13397.21
246.401	13409.88
246.473	13380.48
246.544	13372.19
246.615	13440.69
246.686	13448.06
246.757	13538.88
246.828	13516.08
246.899	13608.11
246.97	13577.35
247.042	13575.61
247.113	13623.39
247.184	13717.82
247.255	13716.76
247.326	13755.08
247.397	13767.66
247.468	13785.93
247.539	13802.9
247.61	13758.31
247.681	13810.23
247.752	13877.29
247.823	13852.22
247.894	13866.92
247.965	13836.45
248.037	13816.59
248.108	13756
248.179	13766.6
248.25	13754.94
248.321	13787.67
248.392	13736.91
248.463	13833.66
248.534	13824.84
248.605	13850.05
248.675	13824.12
248.746	13841.76
248.817	13861.09
248.888	13891.27
248.959	13828.5
249.03	13855.4
249.101	13873.58
249.172	13868.85
249.243	13782.61
249.314	13848.9
249.385	13865.29
249.456	13905.97
249.527	13910.26
249.598	13936.68
249.669	13940.54
249.739	13958.18
249.81	13973.17
249.881	13922.36
249.952	13915.08
250.023	13917.78
250.094	13867.65
250.165	13833.62
250.235	13830.77
250.306	13839.11
250.377	13801.75
250.448	13839.35
250.519	13771.09
250.59	13828.99
250.66	13826
250.731	13905.54
250.802	13911.56
250.873	13928.53
250.944	13946.37
251.014	13931.86
251.085	14040.9
251.156	14076.57
251.227	14139.67
251.297	14197.61
251.368	14257.39
251.439	14300.24
251.51	14366.18
251.58	14349.94
251.651	14343.04
251.722	14409.61
251.792	14353.41
251.863	14357.99
251.934	14423.64
252.005	14552.78
252.075	14559.72
252.146	14624.03
252.217	14682.21
252.287	14729.55
252.358	14740.93
252.429	14826.15
252.499	14823.59
252.57	14834.34
252.641	14892.91
252.711	14895.61
252.782	14850.25
252.852	14937.16
252.923	14942.51
252.994	14954.37
253.064	15012.89
253.135	15005.37
253.205	14981.56
253.276	15061.24
253.347	15137.16
253.417	15120.34
253.488	15099.13
253.558	15084.04
253.629	15079.32
253.699	15088.91
253.77	15112.82
253.841	15100.57
253.911	15116.38
253.982	15142.56
254.052	15171.77
254.123	15166.9
254.193	15171.48
254.264	15321.67
254.334	15292.17
254.405	15251.29
254.475	15216.54
254.546	15223.05
254.616	15290.1
254.687	15326.39
254.757	15358.4
254.827	15357.19
254.898	15382.5
254.968	15396.43
255.039	15379.37
255.109	15422.27
255.18	15400.58
255.25	15330.44
255.321	15376.91
255.391	15327.02
255.461	15419.81
255.532	15327.41
255.602	15322.83
255.673	15268.12
255.743	15229.81
255.813	15148.34
255.884	15207.05
255.954	15253.04
256.024	15323.84
256.095	15326.54
256.165	15284.32
256.235	15298.78
256.306	15288.22
256.376	15336.04
256.446	15374.88
256.517	15422.17
256.587	15467.33
256.657	15489.75
256.728	15519.3
256.798	15531.06
256.868	15538.63
256.938	15504.45
257.009	15562.73
257.079	15604.28
257.149	15708.97
257.219	15649.3
257.29	15697.26
257.36	15637.4
257.43	15673.98
257.5	15604.28
257.571	15598.3
257.641	15644.15
257.711	15616.05
257.781	15651.09
257.852	15667.38
257.922	15611.32
257.992	15615.52
258.062	15608.53
258.132	15660.2
258.202	15668.68
258.273	15684.01
258.343	15761.08
258.413	15754.18
258.483	15768.35
258.553	15741.89
258.623	15723.14
258.693	15759.1
258.764	15831.5
258.834	15914.4
258.904	15931.56
258.974	15938.79
259.044	15958.22
259.114	15989.74
259.184	16028.88
259.254	16035.67
259.324	15982.99
259.394	16026.95
259.464	16114.43
259.535	16126.24
259.605	16118.09
259.675	16115.87
259.745	16154.48
259.815	16128.55
259.885	16127.68
259.955	16243.59
260.025	16232.16
260.095	16242.67
260.165	16273.95
260.235	16342.72
260.305	16323.01
260.375	16296.6
260.445	16385.86
260.515	16456.32
260.585	16508.71
260.655	16511.89
260.725	16560.62
260.795	16607.08
260.865	16690.17
260.934	16655.57
261.004	16690.41
261.074	16696.82
261.144	16757.07
261.214	16793.99
261.284	16799.15
261.354	16847.35
261.424	16805.9
261.494	16884.27
261.564	16888.47
261.634	16920.37
261.703	16854.59
261.773	16875.84
261.843	16910.01
261.913	16899.12
261.983	16836.61
262.053	16852.8
262.123	16845.91
262.192	16811.11
262.262	16849.62
262.332	16793.57
