Data from 20250701_urea_2M_exp3_MAYP1162681_18-09-52-205.txt Node
Date: Tue Jul 01 18:09:52 BST 2025
User: adleo
Spectrometer: MAYP116268
Trigger mode: 0
Integration Time (sec): 4.000000E0
Scans to average: 1
Electric dark correction enabled: true
Nonlinearity correction enabled: true
Boxcar width: 10
XAxis mode: Wavelengths
Number of Pixels in Spectrum: 2068
>>>>>Begin Spectral Data<<<<<
179.565	4068.72
179.642	4278.65
179.718	4448.99
179.795	4596.65
179.871	4724.9
179.948	4795.48
180.024	4868.48
180.101	4956.83
180.177	5011.37
180.254	5100.79
180.33	5184.04
180.407	5481.55
180.483	5798.73
180.56	6115.77
180.636	6410.84
180.712	6364.29
180.789	6403.47
180.865	6450.4
180.942	6483.56
181.018	6529.46
181.095	6583.23
181.171	6597.01
181.248	6599.26
181.324	6653.32
181.4	6678.63
181.477	6716.25
181.553	6764.34
181.63	6846.68
181.706	6907.13
181.782	6938.52
181.859	6937.51
181.935	6959.9
182.011	6946.79
182.088	7004.06
182.164	7084.15
182.24	7133.76
182.317	7168.2
182.393	7163.11
182.469	7215.92
182.546	7263.49
182.622	7273.92
182.698	7255.61
182.775	7302.75
182.851	7358.35
182.927	7327.59
183.003	7317.17
183.08	7293.09
183.156	7325
183.232	7313.37
183.308	7269.82
183.385	7302.49
183.461	7362.05
183.537	7360.75
183.613	7410.26
183.69	7379.59
183.766	7336.41
183.842	7366.69
183.918	7383.52
183.995	7428.55
184.071	7439.56
184.147	7424.61
184.223	7391.47
184.299	7431.43
184.375	7390.29
184.452	7409.43
184.528	7550.22
184.604	7584.87
184.68	7628.41
184.756	7660.1
184.832	7674.43
184.908	7693.46
184.985	7684.86
185.061	7629.19
185.137	7661.79
185.213	7618.04
185.289	7622.66
185.365	7591.47
185.441	7583.01
185.517	7637.7
185.593	7625.1
185.669	7615.1
185.745	7647.65
185.822	7705.02
185.898	7678.77
185.974	7712.26
186.05	7688.79
186.126	7606.56
186.202	7582.15
186.278	7571.33
186.354	7527.43
186.43	7552.06
186.506	7545.86
186.582	7539.85
186.658	7559.07
186.734	7491.45
186.81	7494.24
186.886	7505.24
186.962	7552.34
187.038	7537.63
187.114	7504.14
187.19	7531.12
187.266	7497.29
187.341	7497.86
187.417	7472.34
187.493	7472.72
187.569	7485.37
187.645	7461.33
187.721	7415.51
187.797	7446.56
187.873	7459.59
187.949	7443.73
188.025	7417.03
188.101	7425.3
188.176	7451.01
188.252	7443.32
188.328	7467.44
188.404	7475.03
188.48	7457.63
188.556	7435.37
188.632	7434.46
188.707	7437.49
188.783	7420.75
188.859	7403.41
188.935	7365
189.011	7392.97
189.086	7365.34
189.162	7336.06
189.238	7325.06
189.314	7319.15
189.39	7290.21
189.465	7263.67
189.541	7325.12
189.617	7271.29
189.693	7250.78
189.768	7264.05
189.844	7352.31
189.92	7325.03
189.996	7350.03
190.071	7390.12
190.147	7383.53
190.223	7420.46
190.298	7385.56
190.374	7343.07
190.45	7386.26
190.526	7413.43
190.601	7394.58
190.677	7405.44
190.753	7507.82
190.828	7520.41
190.904	7575.17
190.98	7631.43
191.055	7671.48
191.131	7638.83
191.207	7721.42
191.282	7756.98
191.358	7722.99
191.433	7663.33
191.509	7713.06
191.585	7706.66
191.66	7706.76
191.736	7740.99
191.811	7702.37
191.887	7769.18
191.963	7855.88
192.038	7876.75
192.114	7879.93
192.189	7895.21
192.265	7878.69
192.34	7794.33
192.416	7794.53
192.491	7781.25
192.567	7792.27
192.642	7807.95
192.718	7812.13
192.793	7764.81
192.869	7751.49
192.944	7757.69
193.02	7786.65
193.095	7801.7
193.171	7824.98
193.246	7825.6
193.322	7811.61
193.397	7815.69
193.473	7763.07
193.548	7697.12
193.624	7716.32
193.699	7713.53
193.775	7769
193.85	7777.5
193.925	7812.61
194.001	7811.46
194.076	7780.3
194.152	7744.99
194.227	7708.05
194.302	7670.09
194.378	7684.32
194.453	7676.2
194.529	7727.31
194.604	7676.73
194.679	7656.24
194.755	7584.24
194.83	7627.88
194.905	7620.43
194.981	7654.96
195.056	7629.87
195.131	7651.99
195.207	7645.11
195.282	7611.74
195.357	7540.84
195.433	7600.99
195.508	7558.19
195.583	7581.6
195.659	7632.82
195.734	7651.96
195.809	7652.59
195.884	7688.15
195.96	7687.33
196.035	7740.22
196.11	7719.3
196.185	7761.71
196.261	7771.71
196.336	7891.88
196.411	7837.08
196.486	7857.47
196.561	7828.18
196.637	7855.63
196.712	7913.17
196.787	7920.54
196.862	7975.88
196.937	8015.31
197.013	8027.97
197.088	8061.44
197.163	8139.92
197.238	8203.52
197.313	8214.39
197.388	8261.58
197.464	8370.84
197.539	8411.96
197.614	8387.48
197.689	8432.42
197.764	8490.28
197.839	8562.55
197.914	8535.3
197.989	8625.1
198.065	8670.91
198.14	8855.56
198.215	8960.53
198.29	9006.95
198.365	9053.4
198.44	9092
198.515	9190.89
198.59	9249.78
198.665	9343.99
198.74	9371.97
198.815	9383.39
198.89	9454.45
198.965	9564.07
199.04	9548.03
199.115	9601.71
199.19	9756.5
199.265	9766.28
199.34	9802.01
199.415	9926.55
199.49	10007.55
199.565	10035.39
199.64	10128.39
199.715	10115.48
199.79	10132.77
199.865	10151.61
199.94	10148.09
200.015	10259.37
200.09	10277.39
200.165	10297.72
200.24	10322.77
200.315	10466.78
200.39	10518.62
200.464	10542.22
200.539	10546.22
200.614	10602.97
200.689	10686.95
200.764	10710.18
200.839	10775.2
200.914	10796.3
200.989	10752.69
201.063	10797.79
201.138	10738.46
201.213	10732.97
201.288	10666.67
201.363	10686.52
201.438	10687.29
201.512	10746.83
201.587	10682.88
201.662	10695.8
201.737	10739.94
201.812	10770.44
201.886	10652.69
201.961	10683.68
202.036	10645.29
202.111	10633.34
202.186	10523.06
202.26	10466.15
202.335	10389.54
202.41	10367.09
202.485	10298.31
202.559	10228.94
202.634	10129.76
202.709	10161.82
202.784	10089.86
202.858	10088.51
202.933	10018.77
203.008	9987.79
203.082	9914.87
203.157	9911.55
203.232	9753.83
203.306	9674.44
203.381	9552.57
203.456	9469.55
203.53	9383.44
203.605	9311.96
203.68	9224.88
203.754	9205.82
203.829	9149.72
203.904	9075.77
203.978	9031.23
204.053	9052.22
204.127	9009.81
204.202	9007.16
204.277	8937.51
204.351	8913.2
204.426	8886.62
204.5	8856.49
204.575	8740.24
204.65	8780.45
204.724	8750.87
204.799	8784.93
204.873	8772.6
204.948	8773.56
205.022	8731.61
205.097	8699.1
205.171	8748.43
205.246	8780.2
205.32	8778.14
205.395	8773.51
205.469	8741.91
205.544	8767.24
205.618	8704.47
205.693	8747.03
205.767	8699.34
205.842	8783.48
205.916	8767.7
205.991	8734.73
206.065	8756.53
206.14	8810.49
206.214	8789.68
206.289	8764.84
206.363	8813.07
206.438	8821.59
206.512	8844.84
206.586	8911.74
206.661	8945.45
206.735	8862.99
206.81	8865.16
206.884	8916.31
206.958	8871.89
207.033	8933.09
207.107	8955.63
207.181	9070.14
207.256	9043.27
207.33	9112.1
207.405	9149.68
207.479	9214.48
207.553	9236.86
207.628	9174.26
207.702	9212.53
207.776	9185.85
207.851	9195.77
207.925	9246.06
207.999	9233.97
208.073	9223.38
208.148	9233.35
208.222	9191.93
208.296	9313.06
208.371	9370.05
208.445	9408.48
208.519	9510.64
208.593	9549.11
208.668	9533.41
208.742	9536.97
208.816	9543.66
208.89	9594.68
208.965	9590.15
209.039	9619.15
209.113	9683.49
209.187	9762.94
209.261	9751.67
209.336	9828.68
209.41	9905.26
209.484	9904.4
209.558	9980.07
209.632	10029.24
209.707	10067.05
209.781	10144.45
209.855	10195.43
209.929	10261.07
210.003	10285.45
210.077	10280.63
210.151	10456
210.226	10579.41
210.3	10684.44
210.374	10769.5
210.448	10784.15
210.522	10823.32
210.596	10866.06
210.67	10900.52
210.744	11064.5
210.818	11178.91
210.892	11253.99
210.966	11234.52
211.041	11297.6
211.115	11290.57
211.189	11378.27
211.263	11436.58
211.337	11458.84
211.411	11513.06
211.485	11490.02
211.559	11533.73
211.633	11546.26
211.707	11433.32
211.781	11465.81
211.855	11329.23
211.929	11297.43
212.003	11224.93
212.077	11260.74
212.151	11297.66
212.225	11330.24
212.299	11295.25
212.373	11248.31
212.447	11219.58
212.52	11317.9
212.594	11316.6
212.668	11349.75
212.742	11294.47
212.816	11276.5
212.89	11250.57
212.964	11238.23
213.038	11241.61
213.112	11279.06
213.186	11319.05
213.26	11233.4
213.333	11058.91
213.407	11069.61
213.481	11065.99
213.555	11106.4
213.629	11050.21
213.703	10981.68
213.777	10961.96
213.85	10884.57
213.924	10998.36
213.998	10999.56
214.072	10967.8
214.146	10911.27
214.219	10888.09
214.293	10864.67
214.367	10854.31
214.441	10878.6
214.515	10822.02
214.588	10725.17
214.662	10585.11
214.736	10500.61
214.81	10512.79
214.883	10529.16
214.957	10471.32
215.031	10414.64
215.105	10313.54
215.178	10243.79
215.252	10200.19
215.326	10093.39
215.4	9995.6
215.473	9802.44
215.547	9704.35
215.621	9629.76
215.694	9624.89
215.768	9520.14
215.842	9448.78
215.915	9372.71
215.989	9247.54
216.063	9187.71
216.136	9161.7
216.21	9129.4
216.284	9142.89
216.357	9116.65
216.431	9065.95
216.504	9064.85
216.578	9124.08
216.652	9134.13
216.725	9106.69
216.799	9110.3
216.873	9086.76
216.946	9099.08
217.02	9055.78
217.093	9020.45
217.167	8913.34
217.24	8821.56
217.314	8783.6
217.387	8732.32
217.461	8683.42
217.535	8706.95
217.608	8629.04
217.682	8592.7
217.755	8608.77
217.829	8541.96
217.902	8525.11
217.976	8504.66
218.049	8453.22
218.123	8371.95
218.196	8373.1
218.27	8340.81
218.343	8266.82
218.417	8268.31
218.49	8245.36
218.563	8292.27
218.637	8301.51
218.71	8379.53
218.784	8406.53
218.857	8440.45
218.931	8463.14
219.004	8469.83
219.077	8488.71
219.151	8519.49
219.224	8515.69
219.298	8514.73
219.371	8567.77
219.444	8526.88
219.518	8538.05
219.591	8560.51
219.665	8668.52
219.738	8686.38
219.811	8669.06
219.885	8720.12
219.958	8747.85
220.031	8744.34
220.105	8765.23
220.178	8774.57
220.251	8740.05
220.325	8766
220.398	8788.58
220.471	8813.02
220.544	8854.8
220.618	8830.49
220.691	8854.22
220.764	8872.84
220.838	8900.28
220.911	8882.32
220.984	8975.31
221.057	9012.95
221.131	9043.99
221.204	8942.62
221.277	9011.72
221.35	9140.17
221.424	9133.57
221.497	9146.14
221.57	9177.56
221.643	9216.57
221.716	9269.88
221.79	9284.23
221.863	9294.63
221.936	9303.97
222.009	9322.89
222.082	9355.25
222.155	9364.83
222.229	9440.83
222.302	9475.4
222.375	9482.19
222.448	9524.47
222.521	9527.99
222.594	9527.12
222.667	9490.74
222.74	9550.58
222.814	9542.05
222.887	9522.4
222.96	9580.86
223.033	9636.36
223.106	9662.21
223.179	9690.87
223.252	9700.32
223.325	9729.16
223.398	9745.88
223.471	9776.6
223.544	9791.04
223.617	9798.61
223.69	9827.74
223.763	9782.27
223.837	9802.93
223.91	9837.08
223.983	9788.25
224.056	9750.31
224.129	9785.03
224.202	9846.26
224.275	9836
224.348	9809.9
224.42	9776.09
224.493	9707.7
224.566	9673.35
224.639	9697.48
224.712	9668.19
224.785	9647.71
224.858	9637.89
224.931	9617.8
225.004	9573.45
225.077	9571.62
225.15	9483.08
225.223	9473.02
225.296	9568.27
225.369	9515.01
225.442	9478.07
225.514	9496.99
225.587	9519.04
225.66	9518.75
225.733	9515.34
225.806	9521.36
225.879	9511
225.952	9477.5
226.025	9528.35
226.097	9582.4
226.17	9575.61
226.243	9506.18
226.316	9502.28
226.389	9510.51
226.461	9537.1
226.534	9562.77
226.607	9562.24
226.68	9652.27
226.753	9645.87
226.825	9549.74
226.898	9607.29
226.971	9607.87
227.044	9625.15
227.117	9637.58
227.189	9662.73
227.262	9708.49
227.335	9733.1
227.407	9724.48
227.48	9760.45
227.553	9778.46
227.626	9762.03
227.698	9767.43
227.771	9808.83
227.844	9792.74
227.916	9809.02
227.989	9762.78
228.062	9756.19
228.134	9848.2
228.207	9841.41
228.28	9840.64
228.352	9854.17
228.425	9859.9
228.498	9917.95
228.57	9902.49
228.643	9960.79
228.716	9959.68
228.788	9941.71
228.861	9937.32
228.934	10015.78
229.006	10025.8
229.079	10032.16
229.151	10018.67
229.224	9979.81
229.296	10013
229.369	10130.52
229.442	10183.42
229.514	10168.45
229.587	10226.15
229.659	10152.29
229.732	10172.19
229.804	10219.06
229.877	10308.78
229.949	10352.29
230.022	10403.52
230.094	10402.79
230.167	10389.69
230.239	10344.55
230.312	10339.21
230.384	10419.15
230.457	10414.81
230.529	10428.64
230.602	10426.71
230.674	10437.31
230.747	10488.98
230.819	10520.88
230.892	10389.88
230.964	10391.08
231.037	10427.19
231.109	10411.73
231.181	10448.68
231.254	10409.22
231.326	10394.87
231.399	10367.83
231.471	10336.08
231.544	10251.22
231.616	10299.72
231.688	10308.39
231.761	10297.27
231.833	10284.51
231.905	10191.03
231.978	10185.97
232.05	10168.92
232.122	10172.58
232.195	10147.14
232.267	10179.47
232.339	10153.02
232.412	10220.69
232.484	10197.47
232.556	10164.82
232.629	10245.97
232.701	10265.82
232.773	10281.19
232.846	10270.93
232.918	10278.06
232.99	10295.41
233.062	10342.24
233.135	10362.72
233.207	10324.99
233.279	10370.65
233.351	10411.21
233.424	10417.57
233.496	10394.16
233.568	10486.13
233.64	10447.93
233.713	10470.14
233.785	10469.37
233.857	10487.58
233.929	10434.21
234.001	10500.33
234.074	10575.9
234.146	10493.4
234.218	10495.23
234.29	10496.49
234.362	10486.81
234.434	10431.15
234.507	10393.24
234.579	10336.05
234.651	10311.14
234.723	10350.45
234.795	10369.15
234.867	10361.1
234.939	10428.17
235.012	10448.5
235.084	10450.04
235.156	10494.17
235.228	10470.52
235.3	10453.99
235.372	10467.67
235.444	10536.23
235.516	10457.1
235.588	10472.81
235.66	10491.21
235.732	10463.84
235.804	10679.58
235.876	10733.68
235.948	10810.63
236.02	10827.44
236.092	10841.41
236.164	10861.26
236.236	10858.57
236.308	10865.5
236.38	10897.88
236.452	10879.76
236.524	10903.9
236.596	10975.92
236.668	11015.48
236.74	11044.01
236.812	11086.94
236.884	11126.46
236.956	11145.01
237.028	11137.74
237.1	11117.98
237.172	11198.47
237.244	11282.9
237.316	11154.48
237.388	11134.34
237.46	11107.45
237.532	11176.7
237.604	11174.1
237.675	11256.56
237.747	11316.61
237.819	11311.26
237.891	11317.67
237.963	11303.6
238.035	11300.61
238.107	11185.13
238.178	11254.01
238.25	11262.3
238.322	11352.92
238.394	11300.72
238.466	11296
238.538	11348.14
238.609	11393.39
238.681	11333.62
238.753	11309.33
238.825	11337.53
238.897	11378.15
238.968	11473.69
239.04	11461.06
239.112	11583.9
239.184	11534.16
239.255	11524.37
239.327	11554.06
239.399	11583.46
239.471	11635.74
239.542	11677.77
239.614	11750.35
239.686	11655.01
239.758	11721.09
239.829	11683.49
239.901	11762.19
239.973	11781.28
240.044	11814.2
240.116	11828.51
240.188	11854.06
240.259	11873.82
240.331	11858.87
240.403	11899.51
240.474	11848.41
240.546	11842.05
240.618	11782.42
240.689	11789.75
240.761	11817.85
240.833	11892.8
240.904	11889.91
240.976	11897.43
241.048	11918.78
241.119	11965.4
241.191	12025.06
241.262	12101.71
241.334	12106.1
241.405	12108.6
241.477	12114.77
241.549	12128.99
241.62	12163.51
241.692	12209.78
241.763	12276.4
241.835	12307.06
241.906	12325.85
241.978	12294.33
242.049	12364.8
242.121	12434.79
242.192	12508.35
242.264	12470.65
242.335	12424.62
242.407	12473.6
242.478	12474.9
242.55	12499.72
242.621	12484.87
242.693	12483.67
242.764	12467.38
242.836	12479.19
242.907	12513.7
242.979	12546.48
243.05	12571.79
243.122	12596.47
243.193	12604.66
243.264	12528.5
243.336	12528.88
243.407	12569.28
243.479	12660.05
243.55	12673.98
243.622	12688.34
243.693	12687.52
243.764	12760.17
243.836	12734.91
243.907	12728.45
243.978	12736.26
244.05	12765.09
244.121	12707.82
244.192	12763.55
244.264	12723.49
244.335	12740.22
244.407	12689.22
244.478	12715.3
244.549	12711.34
244.62	12665.79
244.692	12660.25
244.763	12711.82
244.834	12707.97
244.906	12679.28
244.977	12706.91
245.048	12771.36
245.119	12753.14
245.191	12730.87
245.262	12663.67
245.333	12751.49
245.405	12772.75
245.476	12810.06
245.547	12831.51
245.618	12895.87
245.689	12905.89
245.761	12935.64
245.832	12943.88
245.903	12999.41
245.974	13035.08
246.045	13054.56
246.117	13150.63
246.188	13136.51
246.259	13120.12
246.33	13141.52
246.401	13163.26
246.473	13126.96
246.544	13115.44
246.615	13182.4
246.686	13189.54
246.757	13275.05
246.828	13255
246.899	13337.14
246.97	13308.6
247.042	13305.66
247.113	13359.99
247.184	13458.95
247.255	13461.08
247.326	13487.44
247.397	13498
247.468	13504.9
247.539	13521.09
247.61	13468.74
247.681	13517.23
247.752	13579.47
247.823	13552.96
247.894	13573.15
247.965	13547.8
248.037	13531.7
248.108	13468.84
248.179	13485.61
248.25	13484.21
248.321	13519.02
248.392	13467.97
248.463	13553.05
248.534	13545.92
248.605	13572.24
248.675	13544.23
248.746	13559.47
248.817	13585.3
248.888	13606.08
248.959	13541.29
249.03	13567.66
249.101	13577.11
249.172	13560.77
249.243	13479.73
249.314	13557.25
249.385	13558.89
249.456	13591.24
249.527	13587.43
249.598	13616.64
249.669	13621.03
249.739	13637.42
249.81	13652.36
249.881	13601.36
249.952	13598.9
250.023	13604.49
250.094	13545.58
250.165	13511.17
250.235	13508.13
250.306	13513.34
250.377	13475.25
250.448	13512.71
250.519	13446.33
250.59	13507.89
250.66	13511.94
250.731	13593.65
250.802	13583.96
250.873	13614.71
250.944	13641.76
251.014	13635.97
251.085	13743.61
251.156	13768.58
251.227	13821.7
251.297	13873.24
251.368	13933.83
251.439	13978.23
251.51	14029.71
251.58	14015.78
251.651	14009.66
251.722	14079.17
251.792	14016.94
251.863	14023.11
251.934	14096.23
252.005	14215.54
252.075	14226.97
252.146	14281.1
252.217	14334.32
252.287	14384.26
252.358	14393.61
252.429	14472.28
252.499	14459.22
252.57	14467.08
252.641	14525.12
252.711	14534.18
252.782	14494.51
252.852	14575.58
252.923	14578.09
252.994	14591.83
253.064	14645.63
253.135	14630.2
253.205	14600.07
253.276	14686.22
253.347	14764.41
253.417	14738.04
253.488	14720.2
253.558	14710.61
253.629	14714.8
253.699	14731.15
253.77	14761.56
253.841	14755.44
253.911	14764.93
253.982	14793.38
254.052	14822.68
254.123	14820.42
254.193	14819.74
254.264	14967.81
254.334	14934.46
254.405	14898.88
254.475	14865.57
254.546	14873.72
254.616	14936.82
254.687	14975.38
254.757	15005.32
254.827	15000.54
254.898	15025.95
254.968	15034.67
255.039	15022.86
255.109	15065.43
255.18	15040.02
255.25	14964.83
255.321	15003.44
255.391	14954.71
255.461	15046.1
255.532	14964.16
255.602	14965.89
255.673	14908.82
255.743	14863.08
255.813	14792.65
255.884	14842.54
255.954	14890.65
256.024	14963.44
256.095	14973.61
256.165	14932.01
256.235	14950.61
256.306	14939.24
256.376	14991.63
256.446	15034.58
256.517	15073.48
256.587	15116.04
256.657	15135.52
256.728	15161.59
256.798	15166.32
256.868	15170.17
256.938	15136.24
257.009	15185.5
257.079	15218.23
257.149	15333.58
257.219	15272.08
257.29	15317.49
257.36	15260.17
257.43	15290.78
257.5	15221.8
257.571	15213.13
257.641	15266.2
257.711	15236.46
257.781	15272.18
257.852	15289.63
257.922	15227.2
257.992	15232.6
258.062	15225.28
258.132	15262.34
258.202	15269.86
258.273	15285.96
258.343	15360.72
258.413	15349.2
258.483	15359.03
258.553	15330.64
258.623	15297.96
258.693	15333.25
258.764	15407.09
258.834	15486.92
258.904	15510.78
258.974	15510.25
259.044	15524.61
259.114	15546.88
259.184	15571.89
259.254	15586.64
259.324	15531.65
259.394	15585.25
259.464	15670.75
259.535	15684.78
259.605	15691.09
259.675	15687.43
259.745	15728.06
259.815	15709.65
259.885	15719.48
259.955	15834.67
260.025	15830.62
260.095	15847.68
260.165	15886.96
260.235	15950.97
260.305	15937.9
260.375	15902.96
260.445	15995.6
260.515	16070.07
260.585	16120.72
260.655	16138.7
260.725	16185.17
260.795	16229.17
260.865	16299.73
260.934	16261.75
261.004	16291.44
261.074	16293.66
261.144	16364.13
261.214	16394.16
261.284	16397.05
261.354	16436.43
261.424	16385.15
261.494	16462.56
261.564	16468.35
261.634	16495.67
261.703	16426.8
261.773	16451.48
261.843	16490.52
261.913	16481.22
261.983	16421.21
262.053	16446.56
262.123	16441.98
262.192	16400.48
262.262	16442.22
262.332	16392.24
262.402	16424.58
262.472	16433.79
