Data from 20250701_urea_2M_exp3_MAYP1162681_14-59-49-085.txt Node
Date: Tue Jul 01 14:59:49 BST 2025
User: adleo
Spectrometer: MAYP116268
Trigger mode: 0
Integration Time (sec): 4.000000E0
Scans to average: 1
Electric dark correction enabled: true
Nonlinearity correction enabled: true
Boxcar width: 10
XAxis mode: Wavelengths
Number of Pixels in Spectrum: 2068
>>>>>Begin Spectral Data<<<<<
179.565	4219.61
179.642	4440.2
179.718	4601.88
179.795	4752.63
179.871	4880.73
179.948	4950.92
180.024	5034.67
180.101	5123.56
180.177	5180.92
180.254	5275.4
180.33	5363.82
180.407	5670.07
180.483	5994.31
180.56	6325.52
180.636	6629.13
180.712	6577.09
180.789	6615.13
180.865	6661.35
180.942	6693.72
181.018	6738.29
181.095	6786.15
181.171	6804.45
181.248	6804.84
181.324	6870.44
181.4	6896.24
181.477	6935.59
181.553	6990.09
181.63	7066.16
181.706	7130.42
181.782	7160.86
181.859	7153.08
181.935	7169.08
182.011	7155.62
182.088	7218.49
182.164	7296.73
182.24	7348.13
182.317	7382.48
182.393	7377.58
182.469	7431.03
182.546	7477.08
182.622	7493.18
182.698	7476.59
182.775	7520.77
182.851	7576.1
182.927	7545.62
183.003	7533.99
183.08	7512.17
183.156	7549.19
183.232	7543.85
183.308	7490.68
183.385	7525.96
183.461	7592.64
183.537	7602.84
183.613	7654.04
183.69	7621.87
183.766	7578.48
183.842	7608.34
183.918	7633.49
183.995	7683.49
184.071	7691.66
184.147	7676.95
184.223	7636.83
184.299	7679
184.375	7637.81
184.452	7661.81
184.528	7804.13
184.604	7845.18
184.68	7889.36
184.756	7909.33
184.832	7920
184.908	7948.84
184.985	7945.57
185.061	7885.56
185.137	7913.41
185.213	7869.56
185.289	7873.98
185.365	7844.37
185.441	7833.98
185.517	7878.25
185.593	7862.57
185.669	7855.35
185.745	7893.25
185.822	7953.38
185.898	7926.06
185.974	7967.88
186.05	7938.44
186.126	7850.95
186.202	7822.82
186.278	7808.73
186.354	7775.49
186.43	7799.65
186.506	7791.48
186.582	7787.39
186.658	7815.12
186.734	7740.52
186.81	7747.73
186.886	7763.64
186.962	7812.01
187.038	7802.97
187.114	7773.42
187.19	7802.62
187.266	7765.94
187.341	7772.34
187.417	7744.64
187.493	7742.62
187.569	7751.33
187.645	7726.27
187.721	7687.75
187.797	7721.31
187.873	7738.81
187.949	7716.94
188.025	7692.16
188.101	7703.07
188.176	7724.61
188.252	7705.63
188.328	7737.63
188.404	7736.09
188.48	7714.6
188.556	7684.83
188.632	7680.26
188.707	7684.83
188.783	7667.08
188.859	7652.48
188.935	7605.15
189.011	7636.16
189.086	7617.37
189.162	7578.37
189.238	7571.45
189.314	7562.94
189.39	7531.73
189.465	7506.82
189.541	7568.96
189.617	7512.47
189.693	7492.57
189.768	7504.07
189.844	7596.2
189.92	7565.16
189.996	7602.23
190.071	7650.56
190.147	7648.59
190.223	7687.69
190.298	7660.61
190.374	7618.79
190.45	7664.11
190.526	7698.74
190.601	7681.28
190.677	7685.03
190.753	7795.6
190.828	7808.29
190.904	7858.94
190.98	7919.92
191.055	7958.88
191.131	7926.55
191.207	8009.17
191.282	8044.4
191.358	8004.83
191.433	7947.18
191.509	7998.36
191.585	7987.39
191.66	7981.67
191.736	8014.51
191.811	7976.56
191.887	8039.59
191.963	8126.22
192.038	8142.09
192.114	8139.16
192.189	8151.76
192.265	8141.23
192.34	8052.05
192.416	8047
192.491	8033.39
192.567	8041.52
192.642	8049.17
192.718	8051.19
192.793	8002.61
192.869	7988.57
192.944	8002.6
193.02	8033.92
193.095	8043.21
193.171	8069.81
193.246	8067.88
193.322	8055.86
193.397	8059.75
193.473	8006.82
193.548	7938.41
193.624	7961.99
193.699	7957.9
193.775	8012.81
193.85	8019.1
193.925	8059.56
194.001	8059.85
194.076	8032.19
194.152	7995.38
194.227	7971.86
194.302	7931.19
194.378	7946.53
194.453	7935.28
194.529	7980.21
194.604	7925.71
194.679	7908.98
194.755	7830.9
194.83	7875.22
194.905	7864.5
194.981	7899.81
195.056	7869.18
195.131	7894.23
195.207	7883.02
195.282	7844.17
195.357	7771.57
195.433	7828.85
195.508	7784.35
195.583	7809.98
195.659	7864.15
195.734	7888.01
195.809	7883.54
195.884	7919.78
195.96	7920.94
196.035	7979.37
196.11	7958.64
196.185	8002.5
196.261	8013.32
196.336	8132.74
196.411	8084.09
196.486	8107.56
196.561	8082.16
196.637	8115.34
196.712	8174.92
196.787	8186.76
196.862	8249.28
196.937	8284.87
197.013	8304.36
197.088	8339.52
197.163	8420.72
197.238	8487.13
197.313	8487.42
197.388	8533.61
197.464	8646.11
197.539	8684.45
197.614	8654.62
197.689	8706.07
197.764	8767.65
197.839	8840.27
197.914	8813.89
197.989	8891.14
198.065	8943.51
198.14	9125.02
198.215	9227.27
198.29	9269.12
198.365	9317.56
198.44	9354.33
198.515	9463.06
198.59	9519.74
198.665	9622.41
198.74	9651.45
198.815	9655.79
198.89	9732.98
198.965	9846.42
199.04	9833.84
199.115	9892.69
199.19	10053.81
199.265	10063.54
199.34	10103.09
199.415	10229.71
199.49	10315.49
199.565	10354.51
199.64	10445.17
199.715	10439.87
199.79	10459.96
199.865	10477.83
199.94	10478.07
200.015	10595.01
200.09	10610.09
200.165	10631.19
200.24	10648.78
200.315	10791.68
200.39	10844.54
200.464	10872.63
200.539	10875.04
200.614	10928.47
200.689	11015.07
200.764	11040.8
200.839	11106.22
200.914	11122.99
200.989	11082.74
201.063	11127.22
201.138	11070.77
201.213	11070.48
201.288	10993.24
201.363	11012.85
201.438	11021.33
201.512	11079.39
201.587	11018.47
201.662	11033.46
201.737	11069.89
201.812	11106.85
201.886	10989.53
201.961	11021.15
202.036	10979.14
202.111	10970.37
202.186	10860.75
202.26	10803.98
202.335	10723.55
202.41	10702.83
202.485	10630.77
202.559	10557.39
202.634	10456.17
202.709	10478.13
202.784	10399.74
202.858	10403.74
202.933	10331
203.008	10299.83
203.082	10221.6
203.157	10215.96
203.232	10057.63
203.306	9984.4
203.381	9862.07
203.456	9781.01
203.53	9692.1
203.605	9617.86
203.68	9522.53
203.754	9505.4
203.829	9436.66
203.904	9363.33
203.978	9311.6
204.053	9327.73
204.127	9289.26
204.202	9290.7
204.277	9225.28
204.351	9205.49
204.426	9177.21
204.5	9151.17
204.575	9023.1
204.65	9067.03
204.724	9033.93
204.799	9068
204.873	9056.34
204.948	9047.53
205.022	9001.38
205.097	8971.71
205.171	9023.36
205.246	9059.43
205.32	9050.96
205.395	9053.37
205.469	9015.84
205.544	9038.96
205.618	8978.87
205.693	9014.21
205.767	8969.11
205.842	9050.62
205.916	9025.45
205.991	8984.34
206.065	9005.66
206.14	9068.19
206.214	9044.25
206.289	9022.1
206.363	9061.43
206.438	9072.66
206.512	9100.39
206.586	9171.53
206.661	9203.42
206.735	9119.45
206.81	9120.27
206.884	9181.21
206.958	9135.48
207.033	9205.4
207.107	9234.98
207.181	9350.32
207.256	9320.85
207.33	9387.48
207.405	9430.08
207.479	9502.93
207.553	9530.95
207.628	9470.35
207.702	9510.5
207.776	9485.27
207.851	9493.6
207.925	9547.12
207.999	9532.48
208.073	9529.06
208.148	9531.85
208.222	9487.4
208.296	9605.37
208.371	9670.56
208.445	9707.12
208.519	9809.49
208.593	9846.96
208.668	9829.32
208.742	9841.18
208.816	9853.79
208.89	9899.08
208.965	9899.27
209.039	9929.29
209.113	9993.3
209.187	10071.04
209.261	10052.69
209.336	10123.3
209.41	10196.58
209.484	10202.5
209.558	10283.1
209.632	10327.71
209.707	10366.68
209.781	10448.96
209.855	10504.56
209.929	10566.06
210.003	10588.47
210.077	10581.39
210.151	10758.9
210.226	10887.96
210.3	10982.62
210.374	11070.83
210.448	11090.59
210.522	11128.76
210.596	11168.76
210.67	11204.32
210.744	11377.96
210.818	11504.23
210.892	11585.78
210.966	11566.65
211.041	11623.95
211.115	11615.18
211.189	11703.52
211.263	11772.92
211.337	11798.12
211.411	11852.73
211.485	11832
211.559	11876.92
211.633	11891.76
211.707	11780.84
211.781	11808.85
211.855	11674.14
211.929	11641.52
212.003	11567.42
212.077	11601.93
212.151	11635.05
212.225	11662.66
212.299	11618.84
212.373	11570.51
212.447	11543.56
212.52	11644.77
212.594	11653.02
212.668	11683.09
212.742	11623.32
212.816	11593.78
212.89	11568.04
212.964	11551.46
213.038	11556.28
213.112	11595.9
213.186	11651.81
213.26	11559.83
213.333	11380.13
213.407	11395.59
213.481	11394.63
213.555	11435.28
213.629	11375.18
213.703	11301.73
213.777	11298.02
213.85	11218.16
213.924	11330.99
213.998	11325.45
214.072	11289.44
214.146	11224.28
214.219	11209.24
214.293	11188.96
214.367	11185.97
214.441	11206.84
214.515	11155.31
214.588	11052.09
214.662	10903.92
214.736	10807.5
214.81	10817.23
214.883	10838.14
214.957	10783.17
215.031	10724.27
215.105	10620.79
215.178	10551.46
215.252	10511.86
215.326	10394.54
215.4	10302.07
215.473	10098.01
215.547	10004.24
215.621	9926.85
215.694	9922.9
215.768	9811.72
215.842	9735.33
215.915	9653.19
215.989	9525.44
216.063	9461.27
216.136	9433.91
216.21	9408.83
216.284	9423.09
216.357	9397.32
216.431	9349.36
216.504	9345.08
216.578	9409.95
216.652	9424.87
216.725	9398
216.799	9409.75
216.873	9387.32
216.946	9395.31
217.02	9355.52
217.093	9320.41
217.167	9214.4
217.24	9122.99
217.314	9084.73
217.387	9037.77
217.461	8988.52
217.535	9015.29
217.608	8941.54
217.682	8912.9
217.755	8925.89
217.829	8859.16
217.902	8845
217.976	8824.55
218.049	8772.8
218.123	8680.73
218.196	8671.1
218.27	8636.06
218.343	8554.55
218.417	8550.89
218.49	8523.02
218.563	8572.39
218.637	8581.2
218.71	8664.15
218.784	8695.82
218.857	8738.8
218.931	8757.32
219.004	8768.77
219.077	8790.4
219.151	8817
219.224	8804.88
219.298	8803.62
219.371	8855.91
219.444	8811.5
219.518	8825.12
219.591	8848.02
219.665	8963.85
219.738	8986.33
219.811	8969.68
219.885	9021.87
219.958	9058.07
220.031	9063.7
220.105	9085.13
220.178	9091
220.251	9063.5
220.325	9087.82
220.398	9103.91
220.471	9132.98
220.544	9174.62
220.618	9154.97
220.691	9193.63
220.764	9222.13
220.838	9260.17
220.911	9247.41
220.984	9343.21
221.057	9383.94
221.131	9412.54
221.204	9310.28
221.277	9388.78
221.35	9527.13
221.424	9517.65
221.497	9537.44
221.57	9568.97
221.643	9606.73
221.716	9665.31
221.79	9670.7
221.863	9686.31
221.936	9693.1
222.009	9711.87
222.082	9744.87
222.155	9749.11
222.229	9819.97
222.302	9849.78
222.375	9852.72
222.448	9898.14
222.521	9901.47
222.594	9900.55
222.667	9871.14
222.74	9935.57
222.814	9931.04
222.887	9910.42
222.96	9973.13
223.033	10016.83
223.106	10046.83
223.179	10087.65
223.252	10097.81
223.325	10131.67
223.398	10144.68
223.471	10181.96
223.544	10203.78
223.617	10214.09
223.69	10243.76
223.763	10199.24
223.837	10228.53
223.91	10257.19
223.983	10201.13
224.056	10167.08
224.129	10190.97
224.202	10253.52
224.275	10240.32
224.348	10210.55
224.42	10175.43
224.493	10109.82
224.566	10085.68
224.639	10105.48
224.712	10074.98
224.785	10070.74
224.858	10061.63
224.931	10047.85
225.004	10004.12
225.077	10005.47
225.15	9916.71
225.223	9915.65
225.296	10008.85
225.369	9946.33
225.442	9910.78
225.514	9940.15
225.587	9969.92
225.66	9983.31
225.733	9989.77
225.806	10003.98
225.879	9991.79
225.952	9960.68
226.025	10025.23
226.097	10079.97
226.17	10079.01
226.243	10007.43
226.316	9999.24
226.389	10013.74
226.461	10039.95
226.534	10069.86
226.607	10064.03
226.68	10153.71
226.753	10157.03
226.825	10068.56
226.898	10137.34
226.971	10147.12
227.044	10164.79
227.117	10169.61
227.189	10197.56
227.262	10240.3
227.335	10263.18
227.407	10271.32
227.48	10312.12
227.553	10323.68
227.626	10306.76
227.698	10307.68
227.771	10358.1
227.844	10339.55
227.916	10359.11
227.989	10317.3
228.062	10315.75
228.134	10423.64
228.207	10430.39
228.28	10420.75
228.352	10438.63
228.425	10450.1
228.498	10506.71
228.57	10486.81
228.643	10558.66
228.716	10560.01
228.788	10548.93
228.861	10548.54
228.934	10620.57
229.006	10631.46
229.079	10640.95
229.151	10630.4
229.224	10601.84
229.296	10629.15
229.369	10748.91
229.442	10802.31
229.514	10789.69
229.587	10841.48
229.659	10755.37
229.732	10778.5
229.804	10832.27
229.877	10920.75
229.949	10955.11
230.022	11016.04
230.094	11020.42
230.167	11010.4
230.239	10958.94
230.312	10949.93
230.384	11025.65
230.457	11018.8
230.529	11030.99
230.602	11031.57
230.674	11050.17
230.747	11101.43
230.819	11133.47
230.892	10999.94
230.964	11004.18
231.037	11036.84
231.109	11029.9
231.181	11077.36
231.254	11040.84
231.326	11028.5
231.399	11000.4
231.471	10977.26
231.544	10886.13
231.616	10936.81
231.688	10944.38
231.761	10942.16
231.833	10927.03
231.905	10838.45
231.978	10837.35
232.05	10828
232.122	10838.89
232.195	10808.24
232.267	10852.67
232.339	10827.13
232.412	10905.04
232.484	10885.33
232.556	10866.83
232.629	10944.77
232.701	10967.08
232.773	10984.67
232.846	10972.58
232.918	10989.98
232.99	11005.69
233.062	11057.3
233.135	11083.61
233.207	11046.55
233.279	11100.61
233.351	11146.2
233.424	11155.54
233.496	11135.79
233.568	11229.76
233.64	11188.66
233.713	11215.69
233.785	11212.61
233.857	11246.59
233.929	11191.94
234.001	11269.16
234.074	11348.09
234.146	11272.9
234.218	11269.76
234.29	11274.1
234.362	11267.65
234.434	11211.74
234.507	11177.47
234.579	11125.24
234.651	11106.01
234.723	11150.87
234.795	11164.08
234.867	11159.84
234.939	11229
235.012	11257.77
235.084	11263.21
235.156	11318.58
235.228	11307.35
235.3	11295.4
235.372	11303.45
235.444	11370.82
235.516	11282.9
235.588	11292.39
235.66	11317.46
235.732	11295.57
235.804	11509.55
235.876	11564.53
235.948	11646.85
236.02	11672.92
236.092	11701.07
236.164	11722.46
236.236	11724.54
236.308	11732.44
236.38	11774.81
236.452	11752.88
236.524	11775
236.596	11851.12
236.668	11882.88
236.74	11913.68
236.812	11953.01
236.884	12002.51
236.956	12020.92
237.028	12022.85
237.1	12002.37
237.172	12082.72
237.244	12170.64
237.316	12048.49
237.388	12033.45
237.46	12016.82
237.532	12086.37
237.604	12078.52
237.675	12158.68
237.747	12218.89
237.819	12216.14
237.891	12223.75
237.963	12222.41
238.035	12223.03
238.107	12103.87
238.178	12181.24
238.25	12187.8
238.322	12295.54
238.394	12245.94
238.466	12254.08
238.538	12311.58
238.609	12367.06
238.681	12311.92
238.753	12293.21
238.825	12320.06
238.897	12364.55
238.968	12453.73
239.04	12448.77
239.112	12581.66
239.184	12547.53
239.255	12546.28
239.327	12595.97
239.399	12623.01
239.471	12685.48
239.542	12735.81
239.614	12822.91
239.686	12729.44
239.758	12802.57
239.829	12759.62
239.901	12838.38
239.973	12864.8
240.044	12902.88
240.116	12926.11
240.188	12956.58
240.259	12985.26
240.331	12978.32
240.403	13024.6
240.474	12976.63
240.546	12962.7
240.618	12896.85
240.689	12899.94
240.761	12923.17
240.833	12996.78
240.904	12998.32
240.976	13005.6
241.048	13024.89
241.119	13068.61
241.191	13138.75
241.262	13214.09
241.334	13236.36
241.405	13246.87
241.477	13254.54
241.549	13271.17
241.62	13300.43
241.692	13351.91
241.763	13429.24
241.835	13461.29
241.906	13483.9
241.978	13458.6
242.049	13543.53
242.121	13622.11
242.192	13706.52
242.264	13682.13
242.335	13633.49
242.407	13694.18
242.478	13702.61
242.55	13740.26
242.621	13728.55
242.693	13730.82
242.764	13726.72
242.836	13724.11
242.907	13767.55
242.979	13801.68
243.05	13826.36
243.122	13864.64
243.193	13867.67
243.264	13784.28
243.336	13788.62
243.407	13834.27
243.479	13934.34
243.55	13961.29
243.622	13980.43
243.693	13981.78
243.764	14057.32
243.836	14044.69
243.907	14044.49
243.978	14054.18
244.05	14080.41
244.121	14030.71
244.192	14083.73
244.264	14036.88
244.335	14060.06
244.407	14013.79
244.478	14047.29
244.549	14053.27
244.62	14005.64
244.692	14009.59
244.763	14060.84
244.834	14065.61
244.906	14047.53
244.977	14073.66
245.048	14131.64
245.119	14119.06
245.191	14100.17
245.262	14039.43
245.333	14125.67
245.405	14151.5
245.476	14196.19
245.547	14225.31
245.618	14304.08
245.689	14323.21
245.761	14367.56
245.832	14380.82
245.903	14438.86
245.974	14473.47
246.045	14500.7
246.117	14600.54
246.188	14593.6
246.259	14592
246.33	14620.45
246.401	14638.19
246.473	14613.65
246.544	14611.05
246.615	14684.85
246.686	14699.45
246.757	14793.69
246.828	14775.95
246.899	14861.03
246.97	14833.07
247.042	14840.97
247.113	14892.55
247.184	15002.44
247.255	15011.75
247.326	15049.78
247.397	15061.98
247.468	15082.94
247.539	15103.86
247.61	15062.12
247.681	15123.34
247.752	15192.46
247.823	15167.01
247.894	15196.66
247.965	15169.42
248.037	15155.35
248.108	15088.34
248.179	15104.44
248.25	15103.82
248.321	15147.64
248.392	15098.67
248.463	15189.19
248.534	15179.17
248.605	15208.91
248.675	15180.13
248.746	15193.92
248.817	15221.3
248.888	15249.64
248.959	15193.34
249.03	15218.93
249.101	15242.22
249.172	15226.02
249.243	15143.83
249.314	15220.76
249.385	15232.04
249.456	15271.67
249.527	15270.41
249.598	15307.87
249.669	15310.71
249.739	15322.71
249.81	15333.75
249.881	15295.33
249.952	15292.64
250.023	15298.85
250.094	15238.65
250.165	15207.66
250.235	15211.37
250.306	15213.98
250.377	15178.06
250.448	15208.14
250.519	15147.7
250.59	15215.51
250.66	15215.51
250.731	15302.23
250.802	15304.11
250.873	15320.89
250.944	15344.46
251.014	15337.37
251.085	15443.6
251.156	15476.57
251.227	15541.74
251.297	15610.61
251.368	15673.08
251.439	15729.33
251.51	15793.19
251.58	15784.23
251.651	15781.14
251.722	15853.39
251.792	15797.57
251.863	15814.59
251.934	15896.58
252.005	16026.91
252.075	16031.1
252.146	16098.25
252.217	16160.95
252.287	16213.97
252.358	16230.84
252.429	16322.61
252.499	16323.14
252.57	16340.44
252.641	16405.55
252.711	16415.14
252.782	16369.12
252.852	16446.42
252.923	16447.14
252.994	16456.59
253.064	16511.4
253.135	16496.74
253.205	16470.67
253.276	16569.86
253.347	16635.8
253.417	16610.74
253.488	16591.36
253.558	16577.82
253.629	16575.99
253.699	16590.4
253.77	16617.58
253.841	16612.13
253.911	16621.14
253.982	16645.44
254.052	16680.81
254.123	16687.85
254.193	16694.06
254.264	16848.43
254.334	16818.4
254.405	16788.28
254.475	16765.96
254.546	16786.69
254.616	16860.53
254.687	16896.53
254.757	16923.23
254.827	16935.76
254.898	16971.47
254.968	16975.91
255.039	16978.08
255.109	17027.04
255.18	16992.68
255.25	16924.58
255.321	16970.17
255.391	16927.91
255.461	17026.8
255.532	16936.64
255.602	16931.19
255.673	16872.73
255.743	16830.61
255.813	16757.4
255.884	16812.1
255.954	16846.41
256.024	16922.8
256.095	16931.14
256.165	16893.74
256.235	16914.12
256.306	16896.82
256.376	16948.68
256.446	17001.01
256.517	17030.65
256.587	17082.07
256.657	17113.06
256.728	17147.33
256.798	17163.14
256.868	17169.94
256.938	17142.13
257.009	17206.8
257.079	17259.14
257.149	17374.18
257.219	17314.52
257.29	17363.88
257.36	17307.63
257.43	17363.44
257.5	17292.98
257.571	17291.1
257.641	17345.13
257.711	17306.86
257.781	17357.18
257.852	17382.62
257.922	17326.91
257.992	17339.83
258.062	17336.26
258.132	17389.51
258.202	17397.18
258.273	17417.99
258.343	17496.74
258.413	17490.86
258.483	17493.22
258.553	17458.19
258.623	17436.93
258.693	17484.45
258.764	17563.97
258.834	17645.03
258.904	17662.19
258.974	17662.58
259.044	17679.49
259.114	17712.41
259.184	17758.62
259.254	17765.03
259.324	17710.38
259.394	17762.29
259.464	17861.61
259.535	17878.47
259.605	17879.49
259.675	17881.13
259.745	17926.33
259.815	17909.12
259.885	17910.71
259.955	18045.31
260.025	18040.59
260.095	18064.73
260.165	18103.96
260.235	18176.92
260.305	18171.47
260.375	18140.63
260.445	18235.71
260.515	18311.86
260.585	18370.65
260.655	18381.1
260.725	18427.03
260.795	18471.8
260.865	18545.72
260.934	18501.34
261.004	18528.47
261.074	18536.37
261.144	18596.62
261.214	18638.88
261.284	18645.96
261.354	18696.76
261.424	18646.78
261.494	18726.63
261.564	18726.87
261.634	18748.66
261.703	18675.41
261.773	18695.94
261.843	18739.36
261.913	18734.44
261.983	18668.66
262.053	18685.53
