Data from 20250701_urea_2M_exp3_MAYP1162681_06-09-48-688.txt Node
Date: Wed Jul 02 06:09:48 BST 2025
User: adleo
Spectrometer: MAYP116268
Trigger mode: 0
Integration Time (sec): 4.000000E0
Scans to average: 1
Electric dark correction enabled: true
Nonlinearity correction enabled: true
Boxcar width: 10
XAxis mode: Wavelengths
Number of Pixels in Spectrum: 2068
>>>>>Begin Spectral Data<<<<<
179.565	3620.15
179.642	3809.52
179.718	3957.83
179.795	4086.17
179.871	4193.24
179.948	4253.64
180.024	4320.5
180.101	4392.28
180.177	4443.64
180.254	4521.93
180.33	4595.79
180.407	4856.02
180.483	5136.21
180.56	5421.47
180.636	5680.85
180.712	5636.46
180.789	5670.13
180.865	5711.78
180.942	5744.09
181.018	5777.56
181.095	5822.68
181.171	5837.26
181.248	5838.17
181.324	5885.83
181.4	5910.68
181.477	5946.67
181.553	5990.78
181.63	6064.2
181.706	6121.69
181.782	6147.39
181.859	6145.47
181.935	6161.16
182.011	6147.39
182.088	6203.98
182.164	6272.33
182.24	6320.92
182.317	6348.79
182.393	6341.98
182.469	6386.23
182.546	6431.45
182.622	6447.77
182.698	6430.87
182.775	6473.07
182.851	6518.72
182.927	6501.15
183.003	6485.12
183.08	6467.89
183.156	6501.01
183.232	6489.97
183.308	6451.71
183.385	6481.22
183.461	6537.21
183.537	6542.25
183.613	6591.22
183.69	6560.59
183.766	6521.05
183.842	6543.91
183.918	6564.7
183.995	6607.42
184.071	6618.23
184.147	6600.22
184.223	6565.39
184.299	6608.43
184.375	6573.09
184.452	6596.68
184.528	6717.55
184.604	6754.13
184.68	6793.64
184.756	6815.36
184.832	6831.59
184.908	6846.14
184.985	6841.48
185.061	6790.34
185.137	6821.56
185.213	6780.17
185.289	6785.16
185.365	6761.54
185.441	6761.3
185.517	6802.67
185.593	6792.78
185.669	6782.26
185.745	6815.59
185.822	6871.03
185.898	6841.05
185.974	6873.89
186.05	6847.66
186.126	6772.95
186.202	6751.92
186.278	6740.34
186.354	6706.43
186.43	6723.11
186.506	6724.69
186.582	6722
186.658	6743.22
186.734	6672.55
186.81	6681.34
186.886	6692.09
186.962	6731.9
187.038	6713.79
187.114	6692.16
187.19	6716.85
187.266	6688.96
187.341	6691.94
187.417	6666.73
187.493	6670.47
187.569	6677.25
187.645	6659.38
187.721	6621.72
187.797	6643.8
187.873	6658.17
187.949	6642.42
188.025	6626.32
188.101	6633.43
188.176	6650.09
188.252	6637.37
188.328	6668.12
188.404	6663.22
188.48	6647.05
188.556	6623.66
188.632	6622.74
188.707	6624.95
188.783	6612.99
188.859	6599.32
188.935	6560.79
189.011	6584.08
189.086	6559.36
189.162	6531.02
189.238	6528.77
189.314	6520.41
189.39	6503.8
189.465	6479.55
189.541	6531.75
189.617	6475.87
189.693	6453.22
189.768	6467.91
189.844	6549.98
189.92	6522.68
189.996	6558.08
190.071	6596.54
190.147	6593.28
190.223	6622.29
190.298	6594.09
190.374	6552.13
190.45	6595.57
190.526	6621.65
190.601	6607.63
190.677	6617.75
190.753	6710.9
190.828	6720.02
190.904	6772.87
190.98	6825.04
191.055	6856.45
191.131	6829.54
191.207	6903.35
191.282	6939.93
191.358	6908.38
191.433	6860.45
191.509	6904.46
191.585	6893.56
191.66	6893.46
191.736	6918.34
191.811	6892.59
191.887	6949.49
191.963	7032.16
192.038	7045.33
192.114	7045.9
192.189	7056.76
192.265	7041.45
192.34	6966.12
192.416	6960.93
192.491	6945.89
192.567	6951.22
192.642	6962.23
192.718	6964.1
192.793	6921.87
192.869	6909.91
192.944	6916.06
193.02	6936.39
193.095	6950.65
193.171	6963.81
193.246	6963
193.322	6954.06
193.397	6950.85
193.473	6904.37
193.548	6843.68
193.624	6860.07
193.699	6857.23
193.775	6910.1
193.85	6913.7
193.925	6944.31
194.001	6943.54
194.076	6910.06
194.152	6876.18
194.227	6852.73
194.302	6819.99
194.378	6832.38
194.453	6822.34
194.529	6862.07
194.604	6818.31
194.679	6796.5
194.755	6741.15
194.83	6784.56
194.905	6778.55
194.981	6813.81
195.056	6786.16
195.131	6801.96
195.207	6801.14
195.282	6769.06
195.357	6700.2
195.433	6755.63
195.508	6718.97
195.583	6742.6
195.659	6800.79
195.734	6817.03
195.809	6810.11
195.884	6842.28
195.96	6847.08
196.035	6896.08
196.11	6885.79
196.185	6919.13
196.261	6931.42
196.336	7032.26
196.411	6978.9
196.486	6999.03
196.561	6972.12
196.637	7001.27
196.712	7054.72
196.787	7059.91
196.862	7113.66
196.937	7153.05
197.013	7167.38
197.088	7206.97
197.163	7273.13
197.238	7323.4
197.313	7327.44
197.388	7377.8
197.464	7477.06
197.539	7511.37
197.614	7489.99
197.689	7527.25
197.764	7585.48
197.839	7652.54
197.914	7629.27
197.989	7706.43
198.065	7745.52
198.14	7917.48
198.215	8006.06
198.29	8043.16
198.365	8085.19
198.44	8125.4
198.515	8217.52
198.59	8269.29
198.665	8349.05
198.74	8377.26
198.815	8388.04
198.89	8464.43
198.965	8557.99
199.04	8541.29
199.115	8589.59
199.19	8724.2
199.265	8734.01
199.34	8764.29
199.415	8876.77
199.49	8946.91
199.565	8977.67
199.64	9062.33
199.715	9050.19
199.79	9070.89
199.865	9093.33
199.94	9084.04
200.015	9183.61
200.09	9199.16
200.165	9220.25
200.24	9242.16
200.315	9375.84
200.39	9419.86
200.464	9440.61
200.539	9444.8
200.614	9493.04
200.689	9574.9
200.764	9602.7
200.839	9657.95
200.914	9672.54
200.989	9632.84
201.063	9682.83
201.138	9621.62
201.213	9617.43
201.288	9552.47
201.363	9577.13
201.438	9580.55
201.512	9637.01
201.587	9577.96
201.662	9587.16
201.737	9626.26
201.812	9649.33
201.886	9539.63
201.961	9572.39
202.036	9529.11
202.111	9522.7
202.186	9427.38
202.26	9366.36
202.335	9291.42
202.41	9274.43
202.485	9222.11
202.559	9154.81
202.634	9064.54
202.709	9099.37
202.784	9043.29
202.858	9039.05
202.933	8970.46
203.008	8943.83
203.082	8880.78
203.157	8874.72
203.232	8730.84
203.306	8656.93
203.381	8551.22
203.456	8470.9
203.53	8392.64
203.605	8328.25
203.68	8251.47
203.754	8233.02
203.829	8185.47
203.904	8120.49
203.978	8084.35
204.053	8097.67
204.127	8057.23
204.202	8053.28
204.277	7990.28
204.351	7962.67
204.426	7940.29
204.5	7914.42
204.575	7800.96
204.65	7833.63
204.724	7812.51
204.799	7840.9
204.873	7832.82
204.948	7827.62
205.022	7794.94
205.097	7764.71
205.171	7811.88
205.246	7839.98
205.32	7835.32
205.395	7830.02
205.469	7800.86
205.544	7818.95
205.618	7759.51
205.693	7801.2
205.767	7760.62
205.842	7837.77
205.916	7818.49
205.991	7788.53
206.065	7808.78
206.14	7861.05
206.214	7843.87
206.289	7818.61
206.363	7860.64
206.438	7871.41
206.512	7892.43
206.586	7955.04
206.661	7985.07
206.735	7911.1
206.81	7908.7
206.884	7955.81
206.958	7916.92
207.033	7971.09
207.107	7993.66
207.181	8094.5
207.256	8071.32
207.33	8130.33
207.405	8170.53
207.479	8232.24
207.553	8252.92
207.628	8194.32
207.702	8230.25
207.776	8206.34
207.851	8215.28
207.925	8267.31
207.999	8252.69
208.073	8251.24
208.148	8260.05
208.222	8219.53
208.296	8326.02
208.371	8379.56
208.445	8423.11
208.519	8514.17
208.593	8552.47
208.668	8538.7
208.742	8550.4
208.816	8556.13
208.89	8599.4
208.965	8590.54
209.039	8618.18
209.113	8675.97
209.187	8743.18
209.261	8732.21
209.336	8799.11
209.41	8866.06
209.484	8867.99
209.558	8938.51
209.632	8980.24
209.707	9014.56
209.781	9086.9
209.855	9136.31
209.929	9192.34
210.003	9210.44
210.077	9207.89
210.151	9368.5
210.226	9477.84
210.3	9564.85
210.374	9650.1
210.448	9673.5
210.522	9710.35
210.596	9743.73
210.67	9782.3
210.744	9936.72
210.818	10043.45
210.892	10111.71
210.966	10090.04
211.041	10134.35
211.115	10129.05
211.189	10205.92
211.263	10260.11
211.337	10283.71
211.411	10339.16
211.485	10318.97
211.559	10355.72
211.633	10364.82
211.707	10258.71
211.781	10285.7
211.855	10165.65
211.929	10131.13
212.003	10060.69
212.077	10088.54
212.151	10127.71
212.225	10151.99
212.299	10115.94
212.373	10079.05
212.447	10062.28
212.52	10153.66
212.594	10163.73
212.668	10195.62
212.742	10144.65
212.816	10123.36
212.89	10097.01
212.964	10082.75
213.038	10091.23
213.112	10129.39
213.186	10175.53
213.26	10095.9
213.333	9942.93
213.407	9957.95
213.481	9963.77
213.555	9991.79
213.629	9940.72
213.703	9874.38
213.777	9855.79
213.85	9783.58
213.924	9886.69
213.998	9872.28
214.072	9838.55
214.146	9782.97
214.219	9762.83
214.293	9742.71
214.367	9737.07
214.441	9757.68
214.515	9711.87
214.588	9618.49
214.662	9489.1
214.736	9404.5
214.81	9422.16
214.883	9435.25
214.957	9384.9
215.031	9328.12
215.105	9238.89
215.178	9177.36
215.252	9141.4
215.326	9041.99
215.4	8957.26
215.473	8774.55
215.547	8696.75
215.621	8635.05
215.694	8630.57
215.768	8528.68
215.842	8464.69
215.915	8396.56
215.989	8285.09
216.063	8224.62
216.136	8201.57
216.21	8176.8
216.284	8189.12
216.357	8163.19
216.431	8118.21
216.504	8111.57
216.578	8164.94
216.652	8177.91
216.725	8150.2
216.799	8159.93
216.873	8143.53
216.946	8156.32
217.02	8114.31
217.093	8080.92
217.167	7983.04
217.24	7907.74
217.314	7878.57
217.387	7830.89
217.461	7780.2
217.535	7796.4
217.608	7731.06
217.682	7703.5
217.755	7718.4
217.829	7660.54
217.902	7642.84
217.976	7627.31
218.049	7582.55
218.123	7504.32
218.196	7502.35
218.27	7473.94
218.343	7396.64
218.417	7393.08
218.49	7368.71
218.563	7411.68
218.637	7416.3
218.71	7483.76
218.784	7504.05
218.857	7536.45
218.931	7557.69
219.004	7567.97
219.077	7595.21
219.151	7612.07
219.224	7606.21
219.298	7598.71
219.371	7642.62
219.444	7605.66
219.518	7614.31
219.591	7627.91
219.665	7740.62
219.738	7753.89
219.811	7737.5
219.885	7785.15
219.958	7817.67
220.031	7819.88
220.105	7842.48
220.178	7853.5
220.251	7827.52
220.325	7856.1
220.398	7871.68
220.471	7897.84
220.544	7929.15
220.618	7898.74
220.691	7931.25
220.764	7951.49
220.838	7975.93
220.911	7955.15
220.984	8041.8
221.057	8074.6
221.131	8105.47
221.204	7999.25
221.277	8068.92
221.35	8183.66
221.424	8173.75
221.497	8185.68
221.57	8209.67
221.643	8238.93
221.716	8283.63
221.79	8289.41
221.863	8297.64
221.936	8301.87
222.009	8314.37
222.082	8349.41
222.155	8360.86
222.229	8423.09
222.302	8450.71
222.375	8456.82
222.448	8505.8
222.521	8507.01
222.594	8509.89
222.667	8479.45
222.74	8534.01
222.814	8527.17
222.887	8514.89
222.96	8572.64
223.033	8616.5
223.106	8639.2
223.179	8670.98
223.252	8679.12
223.325	8712.03
223.398	8724.83
223.471	8759.96
223.544	8777.81
223.617	8790.9
223.69	8813.9
223.763	8773.56
223.837	8796.09
223.91	8832.48
223.983	8784.26
224.056	8750.05
224.129	8774.31
224.202	8835.54
224.275	8828.23
224.348	8804.74
224.42	8770.08
224.493	8708.1
224.566	8678.06
224.639	8706.35
224.712	8680.35
224.785	8670.29
224.858	8664.37
224.931	8649.35
225.004	8608.35
225.077	8608.93
225.15	8515.74
225.223	8514.73
225.296	8592.88
225.369	8536.78
225.442	8498.32
225.514	8512.36
225.587	8536.42
225.66	8543.4
225.733	8535.41
225.806	8541.57
225.879	8527.14
225.952	8497.26
226.025	8542.93
226.097	8595.7
226.17	8583.24
226.243	8513.57
226.316	8508.66
226.389	8515.93
226.461	8529.21
226.534	8552.79
226.607	8540.81
226.68	8622.44
226.753	8620.08
226.825	8540.06
226.898	8593.95
226.971	8594.77
227.044	8618.78
227.117	8624.65
227.189	8641.36
227.262	8680.2
227.335	8701.67
227.407	8703.07
227.48	8733.71
227.553	8750.51
227.626	8732.98
227.698	8734.91
227.771	8775.79
227.844	8757.74
227.916	8764.29
227.989	8728.82
228.062	8716.88
228.134	8804.74
228.207	8807.3
228.28	8795.75
228.352	8811.63
228.425	8825.06
228.498	8879.36
228.57	8851.5
228.643	8909.33
228.716	8907.02
228.788	8897.19
228.861	8893.1
228.934	8951.29
229.006	8962.46
229.079	8966.12
229.151	8953.5
229.224	8925.74
229.296	8951.87
229.369	9053.63
229.442	9109.73
229.514	9096.5
229.587	9141.5
229.659	9069.62
229.732	9080.55
229.804	9121.12
229.877	9199.91
229.949	9226.88
230.022	9268.11
230.094	9271.58
230.167	9259.44
230.239	9218.81
230.312	9209.72
230.384	9270.45
230.457	9270.59
230.529	9279.54
230.602	9280.84
230.674	9289.18
230.747	9328.06
230.819	9354.73
230.892	9237.53
230.964	9231.7
231.037	9262.54
231.109	9261.29
231.181	9296.86
231.254	9264.27
231.326	9255.27
231.399	9227.04
231.471	9200.55
231.544	9127.01
231.616	9175.48
231.688	9179.82
231.761	9167.07
231.833	9149.69
231.905	9078.27
231.978	9068.83
232.05	9053.67
232.122	9051.99
232.195	9025.27
232.267	9063.74
232.339	9043.71
232.412	9110.33
232.484	9087.45
232.556	9059.73
232.629	9125.96
232.701	9143.68
232.773	9155.24
232.846	9139.01
232.918	9147.35
232.99	9161.89
233.062	9206.67
233.135	9221.02
233.207	9189.77
233.279	9235.11
233.351	9267.7
233.424	9263.27
233.496	9248.82
233.568	9329.96
233.64	9299.78
233.713	9317.3
233.785	9313.59
233.857	9329.48
233.929	9278.36
234.001	9347.87
234.074	9409.09
234.146	9339.83
234.218	9337.76
234.29	9335.54
234.362	9333.95
234.434	9288.06
234.507	9252.62
234.579	9201.92
234.651	9176.55
234.723	9202.64
234.795	9222.24
234.867	9221.42
234.939	9281.23
235.012	9293.17
235.084	9297.12
235.156	9336.69
235.228	9321.09
235.3	9307.95
235.372	9316.28
235.444	9372.41
235.516	9291.58
235.588	9302.13
235.66	9315.42
235.732	9291.29
235.804	9494.72
235.876	9535.31
235.948	9594.64
236.02	9615.59
236.092	9624.35
236.164	9639.51
236.236	9642.64
236.308	9640.38
236.38	9663.64
236.452	9645.48
236.524	9664.4
236.596	9728.98
236.668	9760.19
236.74	9784.17
236.812	9809.16
236.884	9846.74
236.956	9854.54
237.028	9849.05
237.1	9833.35
237.172	9907.15
237.244	9975.93
237.316	9858.71
237.388	9842.15
237.46	9820.66
237.532	9875.86
237.604	9871.53
237.675	9945.81
237.747	9990.76
237.819	9974.67
237.891	9987.2
237.963	9978.39
238.035	9981.18
238.107	9867.72
238.178	9924.53
238.25	9931.75
238.322	10024.27
238.394	9977.55
238.466	9986.7
238.538	10029.22
238.609	10073.14
238.681	10021.16
238.753	10009.07
238.825	10024.73
238.897	10054.97
238.968	10141.03
239.04	10125.13
239.112	10236.45
239.184	10197.47
239.255	10190.15
239.327	10230.74
239.399	10245.97
239.471	10289.41
239.542	10319.18
239.614	10394.76
239.686	10315.17
239.758	10370.28
239.829	10327
239.901	10395.7
239.973	10407.06
240.044	10440.11
240.116	10449.17
240.188	10456.3
240.259	10468.63
240.331	10461.89
240.403	10498.11
240.474	10442.89
240.546	10432.1
240.618	10369.56
240.689	10368.5
240.761	10385.31
240.833	10450.22
240.904	10455.28
240.976	10454.46
241.048	10470.69
241.119	10500.77
241.191	10545.18
241.262	10605.76
241.334	10607.74
241.405	10614.24
241.477	10620.65
241.549	10629.47
241.62	10656.45
241.692	10698.42
241.763	10758.95
241.835	10775.23
241.906	10794.27
241.978	10771.38
242.049	10838.74
242.121	10906.58
242.192	10980.89
242.264	10956.55
242.335	10908.85
242.407	10951.88
242.478	10960.55
242.55	10981.42
242.621	10968.45
242.693	10971.15
242.764	10963.83
242.836	10968.5
242.907	10989.66
242.979	11021.75
243.05	11045.36
243.122	11073.22
243.193	11071.92
243.264	11002.86
243.336	11001.46
243.407	11035.01
243.479	11110.37
243.55	11132.3
243.622	11146.76
243.693	11139.96
243.764	11206.41
243.836	11186.81
243.907	11167.77
243.978	11174.23
244.05	11205.17
244.121	11159.63
244.192	11200.31
244.264	11149.7
244.335	11167.2
244.407	11126.09
244.478	11142.77
244.549	11130.19
244.62	11087.44
244.692	11090.48
244.763	11131
244.834	11123.97
244.906	11099.15
244.977	11120.79
245.048	11167.88
245.119	11146.39
245.191	11124.99
245.262	11056.27
245.333	11135.1
245.405	11161.22
245.476	11191.73
245.547	11205.18
245.618	11260.59
245.689	11269.65
245.761	11311.68
245.832	11319.49
245.903	11365.17
245.974	11395.39
246.045	11413.08
246.117	11492.22
246.188	11481.95
246.259	11469.81
246.33	11492.84
246.401	11510.82
246.473	11473.85
246.544	11462.19
246.615	11515.73
246.686	11518.38
246.757	11599.54
246.828	11572.36
246.899	11642.88
246.97	11615.07
247.042	11606.25
247.113	11643.6
247.184	11728.06
247.255	11721.17
247.326	11743.19
247.397	11746.71
247.468	11740.88
247.539	11755.15
247.61	11714.08
247.681	11753.07
247.752	11799.29
247.823	11775.77
247.894	11787.67
247.965	11763.34
248.037	11743.33
248.108	11693.78
248.179	11704.92
248.25	11698.07
248.321	11727.61
248.392	11683.17
248.463	11764.09
248.534	11765.01
248.605	11789.45
248.675	11764.67
248.746	11787.9
248.817	11814.89
248.888	11831.48
248.959	11786.56
249.03	11813.55
249.101	11817.31
249.172	11803.86
249.243	11739.81
249.314	11801.99
249.385	11812.21
249.456	11847.34
249.527	11844.54
249.598	11867.87
249.669	11871.53
249.739	11882.04
249.81	11894.72
249.881	11852.79
249.952	11844.88
250.023	11846.57
250.094	11791.28
250.165	11765.01
250.235	11749.63
250.306	11746.02
250.377	11714.74
250.448	11745
250.519	11678.2
250.59	11728.52
250.66	11735.17
250.731	11804.43
250.802	11798.84
250.873	11818.17
250.944	11844.05
251.014	11838.65
251.085	11930.43
251.156	11954.77
251.227	12007.94
251.297	12062.36
251.368	12113.17
251.439	12150.72
251.51	12203.02
251.58	12195.45
251.651	12193.91
251.722	12258.16
251.792	12206.64
251.863	12215.65
251.934	12275.9
252.005	12391.05
252.075	12407.35
252.146	12454.58
252.217	12501
252.287	12548.58
252.358	12552.78
252.429	12619.59
252.499	12616.5
252.57	12623.16
252.641	12671.36
252.711	12672.95
252.782	12634.68
252.852	12714.89
252.923	12718.41
252.994	12726.41
253.064	12769.79
253.135	12744.05
253.205	12720
253.276	12803.39
253.347	12863.69
253.417	12832.36
253.488	12812.06
253.558	12798.71
253.629	12788.83
253.699	12800.78
253.77	12821.9
253.841	12813.07
253.911	12824.11
253.982	12836.94
254.052	12866.63
254.123	12872.99
254.193	12876.51
254.264	13006.43
254.334	12970.32
254.405	12936.77
254.475	12906.11
254.546	12916.09
254.616	12984.64
254.687	13016.4
254.757	13032.6
254.827	13035.25
254.898	13062.39
254.968	13072.13
255.039	13058.1
255.109	13098.21
255.18	13072.27
255.25	13003.87
255.321	13042.92
255.391	12996.59
255.461	13082.92
255.532	13000.49
255.602	12986.85
255.673	12934.88
255.743	12894.59
255.813	12822.91
255.884	12872.32
255.954	12901.29
256.024	12967.43
256.095	12969.26
256.165	12926.07
256.235	12949.64
256.306	12932.24
256.376	12979.96
256.446	13011.25
256.517	13047.02
256.587	13092.72
256.657	13113.83
256.728	13140.05
256.798	13152.97
256.868	13156.73
256.938	13119.37
257.009	13168.54
257.079	13212.08
257.149	13314.95
257.219	13254.69
257.29	13293.63
257.36	13240.17
257.43	13278.31
257.5	13215.88
257.571	13207.78
257.641	13248.61
257.711	13206.82
257.781	13241.96
257.852	13260.08
257.922	13202.09
257.992	13200.64
258.062	13197.51
258.132	13242.78
258.202	13247.5
258.273	13252.32
258.343	13327.67
258.413	13320.44
258.483	13322.65
258.553	13284.48
258.623	13251.98
258.693	13286.98
258.764	13347.43
258.834	13407.5
258.904	13426.83
258.974	13418.87
259.044	13422.83
259.114	13449.2
259.184	13480.63
259.254	13492.97
259.324	13438.16
259.394	13489.64
259.464	13573.18
259.535	13568.17
259.605	13554.24
259.675	13545.03
259.745	13584.27
259.815	13553.95
259.885	13559.06
259.955	13665.59
260.025	13654.64
260.095	13663.08
260.165	13690.46
260.235	13749.71
260.305	13734.18
260.375	13701.45
260.445	13786.25
260.515	13849.49
260.585	13904.21
260.655	13914.62
260.725	13958.73
260.795	14004.04
260.865	14072.73
260.934	14034.07
261.004	14069.84
261.074	14081.32
261.144	14141.77
261.214	14173.15
261.284	14180.28
261.354	14214.99
261.424	14167.85
261.494	14240.79
261.564	14256.4
261.634	14283.79
261.703	14221.94
261.773	14253.42
261.843	14294.87
261.913	14284.32
261.983	14232.64
262.053	14245.51
262.123	14240.5
262.192	14206.08
262.262	14242.14
262.332	14193.45
262.402	14224.35
262.472	14230.33
262.541	14171.51
262.611	14216.59
262.681	14191.18
262.751	14223.24
262.821	14220.92
262.89	14196.97
262.96	14225.36
263.03	14297.14
263.1	14321.09
263.169	14339.41
263.239	14376.87
